Frequency (Hz)	Level (dB)
15.625000	-77.824173
31.250000	-75.171623
46.875000	-71.566093
62.500000	-66.789085
78.125000	-64.733841
93.750000	-64.293892
109.375000	-63.385330
125.000000	-62.900711
140.625000	-64.164040
156.250000	-63.588444
171.875000	-62.609402
187.500000	-61.259766
203.125000	-59.456760
218.750000	-57.041214
234.375000	-53.628483
250.000000	-49.313274
265.625000	-46.552948
281.250000	-47.597282
296.875000	-51.212559
312.500000	-54.453209
328.125000	-56.640144
343.750000	-58.122627
359.375000	-59.075352
375.000000	-59.638535
390.625000	-59.835964
406.250000	-59.745483
421.875000	-59.417850
437.500000	-58.791542
453.125000	-57.954914
468.750000	-56.940804
484.375000	-55.680870
500.000000	-54.038692
515.625000	-51.801022
531.250000	-49.040657
546.875000	-46.937241
562.500000	-47.090115
578.125000	-49.321972
593.750000	-51.897968
609.375000	-53.763084
625.000000	-54.895199
640.625000	-55.604511
656.250000	-56.130966
671.875000	-56.458977
687.500000	-56.510056
703.125000	-56.233109
718.750000	-55.595310
734.375000	-54.562778
750.000000	-53.075199
765.625000	-51.112602
781.250000	-48.931957
796.875000	-47.316219
812.500000	-46.860603
828.125000	-47.146912
843.750000	-47.623859
859.375000	-48.493496
875.000000	-49.846001
890.625000	-51.295448
906.250000	-52.491947
921.875000	-53.320667
937.500000	-53.776215
953.125000	-53.899429
968.750000	-53.706890
984.375000	-53.261295
1000.000000	-52.636169
1015.625000	-51.928127
1031.250000	-51.161465
1046.875000	-50.301594
1062.500000	-49.394650
1078.125000	-48.704601
1093.750000	-48.461121
1109.375000	-48.560028
1125.000000	-48.697224
1140.625000	-48.747280
1156.250000	-48.887016
1171.875000	-49.264088
1187.500000	-49.702988
1203.125000	-49.940464
1218.750000	-50.046764
1234.375000	-50.168236
1250.000000	-50.224232
1265.625000	-50.135658
1281.250000	-49.928467
1296.875000	-49.634460
1312.500000	-49.180729
1328.125000	-48.446625
1343.750000	-47.333347
1359.375000	-45.754871
1375.000000	-43.599350
1390.625000	-40.816998
1406.250000	-37.983704
1421.875000	-36.708614
1437.500000	-37.824203
1453.125000	-40.247646
1468.750000	-42.476185
1484.375000	-44.096470
1500.000000	-45.186184
1515.625000	-45.852924
1531.250000	-46.163109
1546.875000	-46.157154
1562.500000	-45.852657
1578.125000	-45.247223
1593.750000	-44.314037
1609.375000	-43.014084
1625.000000	-41.286510
1640.625000	-39.099098
1656.250000	-36.681400
1671.875000	-34.947460
1687.500000	-34.958797
1703.125000	-36.619362
1718.750000	-38.789783
1734.375000	-40.637856
1750.000000	-42.011955
1765.625000	-42.972145
1781.250000	-43.588936
1796.875000	-43.908379
1812.500000	-43.963638
1828.125000	-43.768776
1843.750000	-43.329357
1859.375000	-42.643677
1875.000000	-41.705044
1890.625000	-40.514416
1906.250000	-39.118828
1921.875000	-37.678608
1937.500000	-36.559128
1953.125000	-36.196270
1968.750000	-36.722172
1984.375000	-37.840874
2000.000000	-39.123116
2015.625000	-40.290020
2031.250000	-41.238182
2046.875000	-41.952103
2062.500000	-42.444736
2078.125000	-42.732204
2093.750000	-42.834835
2109.375000	-42.768467
2125.000000	-42.542145
2140.625000	-42.171207
2156.250000	-41.672939
2171.875000	-41.076279
2187.500000	-40.422714
2203.125000	-39.765747
2218.750000	-39.145962
2234.375000	-38.594349
2250.000000	-38.192253
2265.625000	-38.116131
2281.250000	-38.484253
2296.875000	-39.199318
2312.500000	-40.042221
2328.125000	-40.840218
2343.750000	-41.508976
2359.375000	-42.018272
2375.000000	-42.364723
2390.625000	-42.553619
2406.250000	-42.586517
2421.875000	-42.463154
2437.500000	-42.184277
2453.125000	-41.747509
2468.750000	-41.153042
2484.375000	-40.408524
2500.000000	-39.543118
2515.625000	-38.626743
2531.250000	-37.803890
2546.875000	-37.280312
2562.500000	-37.240147
2578.125000	-37.711884
2593.750000	-38.542503
2609.375000	-39.509174
2625.000000	-40.436764
2640.625000	-41.227570
2656.250000	-41.839180
2671.875000	-42.255657
2687.500000	-42.470127
2703.125000	-42.478172
2718.750000	-42.272667
2734.375000	-41.839695
2750.000000	-41.162750
2765.625000	-40.220726
2781.250000	-39.005058
2796.875000	-37.560680
2812.500000	-36.083340
2828.125000	-35.029652
2843.750000	-34.906353
2859.375000	-35.778873
2875.000000	-37.202244
2890.625000	-38.675072
2906.250000	-39.945797
2921.875000	-40.948181
2937.500000	-41.678829
2953.125000	-42.149754
2968.750000	-42.371925
2984.375000	-42.347980
3000.000000	-42.074028
3015.625000	-41.536308
3031.250000	-40.707333
3046.875000	-39.547291
3062.500000	-38.013367
3078.125000	-36.116417
3093.750000	-34.143181
3109.375000	-32.894188
3125.000000	-33.130432
3140.625000	-34.675953
3156.250000	-36.643444
3171.875000	-38.390457
3187.500000	-39.753933
3203.125000	-40.754471
3218.750000	-41.436825
3234.375000	-41.833683
3250.000000	-41.969242
3265.625000	-41.849972
3281.250000	-41.470154
3296.875000	-40.810638
3312.500000	-39.836239
3328.125000	-38.491806
3343.750000	-36.712078
3359.375000	-34.512512
3375.000000	-32.332573
3390.625000	-31.262230
3406.250000	-32.019764
3421.875000	-34.033302
3437.500000	-36.180717
3453.125000	-37.929974
3468.750000	-39.237877
3484.375000	-40.168217
3500.000000	-40.777996
3515.625000	-41.103535
3531.250000	-41.164669
3546.875000	-40.968800
3562.500000	-40.509422
3578.125000	-39.765671
3593.750000	-38.699173
3609.375000	-37.256504
3625.000000	-35.380314
3640.625000	-33.145912
3656.250000	-31.147253
3671.875000	-30.484886
3687.500000	-31.599535
3703.125000	-33.702419
3718.750000	-35.769733
3734.375000	-37.423714
3750.000000	-38.661221
3765.625000	-39.545208
3781.250000	-40.127281
3796.875000	-40.442509
3812.500000	-40.507092
3828.125000	-40.327663
3843.750000	-39.898388
3859.375000	-39.199085
3875.000000	-38.199120
3890.625000	-36.850380
3906.250000	-35.119514
3921.875000	-33.118031
3937.500000	-31.405674
3953.125000	-30.917229
3968.750000	-32.007271
3984.375000	-34.003590
4000.000000	-36.020813
4015.625000	-37.690651
4031.250000	-38.985905
4046.875000	-39.952469
4062.500000	-40.635216
4078.125000	-41.063686
4093.750000	-41.254528
4109.375000	-41.212322
4125.000000	-40.929508
4140.625000	-40.387665
4156.250000	-39.554062
4171.875000	-38.383537
4187.500000	-36.831566
4203.125000	-34.956596
4218.750000	-33.216778
4234.375000	-32.552288
4250.000000	-33.503094
4265.625000	-35.542007
4281.250000	-37.724110
4296.875000	-39.577011
4312.500000	-41.037712
4328.125000	-42.149628
4343.750000	-42.956791
4359.375000	-43.490887
4375.000000	-43.768044
4390.625000	-43.795498
4406.250000	-43.563477
4421.875000	-43.050240
4437.500000	-42.219009
4453.125000	-41.010147
4468.750000	-39.360271
4484.375000	-37.323833
4500.000000	-35.464348
4515.625000	-34.911228
4531.250000	-36.171783
4546.875000	-38.473202
4562.500000	-40.751297
4578.125000	-42.611233
4593.750000	-44.053177
4609.375000	-45.146297
4625.000000	-45.936890
4640.625000	-46.456207
4656.250000	-46.715668
4671.875000	-46.720345
4687.500000	-46.460709
4703.125000	-45.909039
4718.750000	-45.020855
4734.375000	-43.729420
4750.000000	-41.947720
4765.625000	-39.712406
4781.250000	-37.675304
4796.875000	-37.155037
4812.500000	-38.663372
4828.125000	-41.218063
4843.750000	-43.627666
4859.375000	-45.536045
4875.000000	-46.983105
4890.625000	-48.050987
4906.250000	-48.800835
4921.875000	-49.269020
4937.500000	-49.470394
4953.125000	-49.411285
4968.750000	-49.080753
4984.375000	-48.450066
5000.000000	-47.469959
5015.625000	-46.067959
5031.250000	-44.149078
5046.875000	-41.775471
5062.500000	-39.751392
5078.125000	-39.483150
5093.750000	-41.285889
5109.375000	-43.953606
5125.000000	-46.331467
5140.625000	-48.171841
5156.250000	-49.552860
5171.875000	-50.561012
5187.500000	-51.251293
5203.125000	-51.660389
5218.750000	-51.802593
5234.375000	-51.680763
5250.000000	-51.280331
5265.625000	-50.570278
5281.250000	-49.493198
5296.875000	-47.972721
5312.500000	-45.925758
5328.125000	-43.520794
5343.750000	-41.780983
5359.375000	-41.995575
5375.000000	-44.087509
5390.625000	-46.713402
5406.250000	-48.942345
5421.875000	-50.651627
5437.500000	-51.922104
5453.125000	-52.830269
5468.750000	-53.433441
5484.375000	-53.768944
5500.000000	-53.836933
5515.625000	-53.646240
5531.250000	-53.176804
5546.875000	-52.405052
5562.500000	-51.290398
5578.125000	-49.770039
5593.750000	-47.842953
5609.375000	-45.808586
5625.000000	-44.583530
5640.625000	-45.029762
5656.250000	-46.899853
5671.875000	-49.160217
5687.500000	-51.129623
5703.125000	-52.686398
5718.750000	-53.863972
5734.375000	-54.714130
5750.000000	-55.277355
5765.625000	-55.565083
5781.250000	-55.604153
5796.875000	-55.381248
5812.500000	-54.882946
5828.125000	-54.090809
5843.750000	-52.969994
5859.375000	-51.480507
5875.000000	-49.700039
5890.625000	-48.024715
5906.250000	-47.275768
5921.875000	-47.984779
5937.500000	-49.763775
5953.125000	-51.766178
5968.750000	-53.509865
5984.375000	-54.896427
6000.000000	-55.943676
6015.625000	-56.697117
6031.250000	-57.192513
6046.875000	-57.448826
6062.500000	-57.475998
6078.125000	-57.269104
6093.750000	-56.825581
6109.375000	-56.129395
6125.000000	-55.174679
6140.625000	-53.976200
6156.250000	-52.639221
6171.875000	-51.456940
6187.500000	-50.914032
6203.125000	-51.334705
6218.750000	-52.562763
6234.375000	-54.117188
6250.000000	-55.614883
6265.625000	-56.886414
6281.250000	-57.910461
6296.875000	-58.701500
6312.500000	-59.267517
6328.125000	-59.620701
6343.750000	-59.766521
6359.375000	-59.705067
6375.000000	-59.440296
6390.625000	-58.969257
6406.250000	-58.283394
6421.875000	-57.382530
6437.500000	-56.313583
6453.125000	-55.223007
6468.750000	-54.422459
6484.375000	-54.289349
6500.000000	-54.971867
6515.625000	-56.246780
6531.250000	-57.733963
6546.875000	-59.158604
6562.500000	-60.396210
6578.125000	-61.408947
6593.750000	-62.207817
6609.375000	-62.801228
6625.000000	-63.177814
6640.625000	-63.340237
6656.250000	-63.300053
6671.875000	-63.038319
6687.500000	-62.534637
6703.125000	-61.780582
6718.750000	-60.763145
6734.375000	-59.546894
6750.000000	-58.424458
6765.625000	-57.920742
6781.250000	-58.470020
6796.875000	-59.960339
6812.500000	-61.842030
6828.125000	-63.680775
6843.750000	-65.288818
6859.375000	-66.611473
6875.000000	-67.665565
6890.625000	-68.476822
6906.250000	-69.083473
6921.875000	-69.470848
6937.500000	-69.608170
6953.125000	-69.513649
6968.750000	-69.156044
6984.375000	-68.520248
7000.000000	-67.560959
7015.625000	-66.311729
7031.250000	-65.080650
7046.875000	-64.556244
7062.500000	-65.310486
7078.125000	-67.200706
7093.750000	-69.513130
7109.375000	-71.682236
7125.000000	-73.607613
7140.625000	-75.199577
7156.250000	-76.480293
7171.875000	-77.481064
7187.500000	-78.323524
7203.125000	-78.858360
7218.750000	-79.189621
7234.375000	-79.326202
7250.000000	-79.150230
7265.625000	-78.656662
7281.250000	-77.858696
7296.875000	-76.766212
7312.500000	-75.681755
7328.125000	-75.350655
7343.750000	-76.375381
7359.375000	-78.544876
7375.000000	-81.121574
7390.625000	-83.461548
7406.250000	-85.480789
7421.875000	-87.105171
7437.500000	-88.294373
7453.125000	-89.501610
7468.750000	-90.394966
7484.375000	-91.029655
7500.000000	-91.561073
7515.625000	-92.058609
7531.250000	-92.237289
7546.875000	-92.522842
7562.500000	-92.806244
7578.125000	-92.904053
7593.750000	-93.093224
7609.375000	-93.690773
7625.000000	-95.358055
7640.625000	-97.813148
7656.250000	-100.377998
7671.875000	-102.562538
7687.500000	-104.831421
7703.125000	-106.899963
7718.750000	-109.134216
7734.375000	-111.656296
7750.000000	-114.471954
7765.625000	-117.613289
7781.250000	-120.699112
7796.875000	-124.047821
7812.500000	-127.424652
7828.125000	-131.271439
7843.750000	-135.082733
7859.375000	-139.212265
7875.000000	-144.055557
7890.625000	-150.140701
7906.250000	-158.609467
7921.875000	-164.019409
7937.500000	-165.095154
7953.125000	-165.495911
7968.750000	-165.632782
7984.375000	-165.690292
