Frequency (Hz)	Level (dB)
15.625000	-65.792557
31.250000	-60.537903
46.875000	-58.522278
62.500000	-57.603886
78.125000	-57.002495
93.750000	-57.110966
109.375000	-57.188644
125.000000	-57.299278
140.625000	-57.433617
156.250000	-56.839348
171.875000	-56.108372
187.500000	-54.427368
203.125000	-52.087322
218.750000	-48.551804
234.375000	-44.461132
250.000000	-43.480690
265.625000	-46.414333
281.250000	-50.519283
296.875000	-53.530304
312.500000	-55.638020
328.125000	-56.746132
343.750000	-57.655933
359.375000	-58.099030
375.000000	-58.101704
390.625000	-57.841240
406.250000	-57.331070
421.875000	-56.767056
437.500000	-55.956554
453.125000	-54.577976
468.750000	-52.488155
484.375000	-50.135529
500.000000	-48.025234
515.625000	-47.631958
531.250000	-49.548370
546.875000	-52.403305
562.500000	-54.239159
578.125000	-55.437305
593.750000	-56.343212
609.375000	-56.955189
625.000000	-57.400242
640.625000	-57.493427
656.250000	-57.200958
671.875000	-56.599560
687.500000	-55.090500
703.125000	-53.377312
718.750000	-51.350693
734.375000	-49.604679
750.000000	-48.807350
765.625000	-49.099335
781.250000	-49.999466
796.875000	-51.192818
812.500000	-52.439465
828.125000	-53.776318
843.750000	-55.139801
859.375000	-55.922497
875.000000	-56.283474
890.625000	-56.114395
906.250000	-55.786289
921.875000	-55.233654
937.500000	-54.613720
953.125000	-54.114521
968.750000	-53.211201
984.375000	-52.336666
1000.000000	-51.854073
1015.625000	-51.765888
1031.250000	-52.241478
1046.875000	-52.535206
1062.500000	-52.978817
1078.125000	-53.254463
1093.750000	-53.591137
1109.375000	-54.035210
1125.000000	-54.037876
1140.625000	-54.208656
1156.250000	-54.348728
1171.875000	-54.174370
1187.500000	-53.966316
1203.125000	-53.522846
1218.750000	-53.172558
1234.375000	-52.454750
1250.000000	-50.889652
1265.625000	-48.899433
1281.250000	-46.028263
1296.875000	-43.463600
1312.500000	-42.101162
1328.125000	-42.916443
1343.750000	-45.164639
1359.375000	-47.330849
1375.000000	-49.033531
1390.625000	-50.248257
1406.250000	-50.957287
1421.875000	-51.227676
1437.500000	-51.001587
1453.125000	-50.407536
1468.750000	-49.620518
1484.375000	-48.527794
1500.000000	-46.942287
1515.625000	-44.666470
1531.250000	-42.520432
1546.875000	-40.898468
1562.500000	-40.980408
1578.125000	-42.712078
1593.750000	-45.202488
1609.375000	-46.923134
1625.000000	-48.340927
1640.625000	-48.933235
1656.250000	-49.491913
1671.875000	-50.063675
1687.500000	-49.825333
1703.125000	-49.181278
1718.750000	-48.579361
1734.375000	-47.748737
1750.000000	-46.584667
1765.625000	-44.978024
1781.250000	-43.285992
1796.875000	-42.917740
1812.500000	-43.056343
1828.125000	-43.898209
1843.750000	-44.989925
1859.375000	-46.341465
1875.000000	-47.165352
1890.625000	-47.879875
1906.250000	-48.459518
1921.875000	-48.844208
1937.500000	-49.192257
1953.125000	-49.352791
1968.750000	-49.234264
1984.375000	-48.807571
2000.000000	-48.280079
2015.625000	-47.691311
2031.250000	-46.933796
2046.875000	-46.019135
2062.500000	-45.783073
2078.125000	-45.312294
2093.750000	-45.318306
2109.375000	-45.730354
2125.000000	-46.386665
2140.625000	-47.123798
2156.250000	-47.887829
2171.875000	-48.575233
2187.500000	-48.966610
2203.125000	-49.275829
2218.750000	-49.454571
2234.375000	-49.509411
2250.000000	-49.343479
2265.625000	-49.205452
2281.250000	-48.663193
2296.875000	-47.599014
2312.500000	-46.499996
2328.125000	-45.677883
2343.750000	-45.221954
2359.375000	-44.662376
2375.000000	-44.754780
2390.625000	-45.533798
2406.250000	-46.569546
2421.875000	-47.570004
2437.500000	-48.517490
2453.125000	-49.474304
2468.750000	-49.906475
2484.375000	-49.847309
2500.000000	-49.867138
2515.625000	-49.864605
2531.250000	-49.632248
2546.875000	-48.890430
2562.500000	-47.830864
2578.125000	-46.569675
2593.750000	-44.897587
2609.375000	-43.768856
2625.000000	-43.157536
2640.625000	-43.404259
2656.250000	-44.704617
2671.875000	-46.168644
2687.500000	-47.498344
2703.125000	-48.881065
2718.750000	-49.654198
2734.375000	-50.165562
2750.000000	-50.440044
2765.625000	-50.610065
2781.250000	-50.214481
2796.875000	-49.370754
2812.500000	-48.598263
2828.125000	-47.010769
2843.750000	-44.987923
2859.375000	-43.076244
2875.000000	-41.629387
2890.625000	-41.568630
2906.250000	-43.078209
2921.875000	-45.372681
2937.500000	-47.332893
2953.125000	-48.474957
2968.750000	-49.436741
2984.375000	-50.055946
3000.000000	-50.268688
3015.625000	-50.382381
3031.250000	-50.029613
3046.875000	-49.500122
3062.500000	-48.825600
3078.125000	-47.282032
3093.750000	-45.692169
3109.375000	-43.578358
3125.000000	-41.215454
3140.625000	-40.487217
3156.250000	-41.874596
3171.875000	-44.142635
3187.500000	-46.182217
3203.125000	-47.539127
3218.750000	-48.800797
3234.375000	-49.785965
3250.000000	-50.213757
3265.625000	-50.159180
3281.250000	-50.017998
3296.875000	-49.360725
3312.500000	-48.605549
3328.125000	-47.360664
3343.750000	-45.690208
3359.375000	-43.461082
3375.000000	-41.260971
3390.625000	-39.927044
3406.250000	-40.479073
3421.875000	-42.612949
3437.500000	-44.509453
3453.125000	-46.517838
3468.750000	-48.021317
3484.375000	-48.864410
3500.000000	-49.398830
3515.625000	-49.672634
3531.250000	-49.569435
3546.875000	-48.875828
3562.500000	-48.266724
3578.125000	-47.605850
3593.750000	-46.316525
3609.375000	-44.253178
3625.000000	-42.112392
3640.625000	-40.453487
3656.250000	-39.818447
3671.875000	-40.929886
3687.500000	-42.969578
3703.125000	-45.027779
3718.750000	-46.785049
3734.375000	-47.767738
3750.000000	-48.465698
3765.625000	-48.924961
3781.250000	-48.947102
3796.875000	-49.015385
3812.500000	-48.544769
3828.125000	-47.657009
3843.750000	-46.860851
3859.375000	-45.754654
3875.000000	-43.631786
3890.625000	-41.350727
3906.250000	-40.105057
3921.875000	-40.562286
3937.500000	-42.102482
3953.125000	-44.309219
3968.750000	-46.372784
3984.375000	-47.743320
4000.000000	-49.011028
4015.625000	-49.706779
4031.250000	-50.173286
4046.875000	-50.388203
4062.500000	-50.086376
4078.125000	-49.936966
4093.750000	-49.179829
4109.375000	-48.228580
4125.000000	-46.810165
4140.625000	-44.725185
4156.250000	-42.946869
4171.875000	-42.189705
4187.500000	-42.986435
4203.125000	-44.955803
4218.750000	-47.334148
4234.375000	-49.131138
4250.000000	-50.747967
4265.625000	-51.809269
4281.250000	-52.483929
4296.875000	-52.985207
4312.500000	-53.072906
4328.125000	-53.048210
4343.750000	-52.801754
4359.375000	-51.851509
4375.000000	-50.583443
4390.625000	-48.898155
4406.250000	-46.638359
4421.875000	-44.978470
4437.500000	-44.796158
4453.125000	-46.289204
4468.750000	-48.762058
4484.375000	-51.099731
4500.000000	-52.782864
4515.625000	-54.282715
4531.250000	-55.108429
4546.875000	-55.598740
4562.500000	-55.941959
4578.125000	-55.909405
4593.750000	-55.904018
4609.375000	-55.238934
4625.000000	-54.146538
4640.625000	-52.717720
4656.250000	-50.886570
4671.875000	-48.858498
4687.500000	-47.463531
4703.125000	-47.947170
4718.750000	-50.047100
4734.375000	-52.642445
4750.000000	-54.820530
4765.625000	-56.637310
4781.250000	-57.737232
4796.875000	-58.422352
4812.500000	-58.859623
4828.125000	-59.089359
4843.750000	-58.948891
4859.375000	-58.531891
4875.000000	-57.463852
4890.625000	-56.276276
4906.250000	-54.482586
4921.875000	-52.080727
4937.500000	-50.358337
4953.125000	-50.228287
4968.750000	-51.961311
4984.375000	-54.676872
5000.000000	-56.822884
5015.625000	-58.599972
5031.250000	-59.775558
5046.875000	-60.655041
5062.500000	-61.171040
5078.125000	-61.478832
5093.750000	-61.400875
5109.375000	-61.006073
5125.000000	-60.135601
5140.625000	-59.071911
5156.250000	-58.024220
5171.875000	-56.078983
5187.500000	-53.782028
5203.125000	-52.897335
5218.750000	-53.967720
5234.375000	-56.034668
5250.000000	-58.163609
5265.625000	-60.058357
5281.250000	-61.608074
5296.875000	-62.569740
5312.500000	-62.984295
5328.125000	-63.508892
5343.750000	-63.873856
5359.375000	-63.573177
5375.000000	-62.976002
5390.625000	-61.964123
5406.250000	-60.896603
5421.875000	-59.669559
5437.500000	-58.114662
5453.125000	-56.322891
5468.750000	-55.964764
5484.375000	-57.065361
5500.000000	-59.161438
5515.625000	-61.135372
5531.250000	-62.720825
5546.875000	-64.027435
5562.500000	-64.570694
5578.125000	-65.080429
5593.750000	-65.340904
5609.375000	-65.431679
5625.000000	-65.374947
5640.625000	-64.903519
5656.250000	-63.792316
5671.875000	-62.488319
5687.500000	-61.021915
5703.125000	-59.666130
5718.750000	-59.084538
5734.375000	-59.187580
5750.000000	-60.226433
5765.625000	-61.747761
5781.250000	-63.232498
5796.875000	-64.583069
5812.500000	-65.528725
5828.125000	-66.127945
5843.750000	-66.641563
5859.375000	-66.929054
5875.000000	-66.912598
5890.625000	-66.601860
5906.250000	-66.187126
5921.875000	-65.498985
5937.500000	-64.212532
5953.125000	-62.875771
5968.750000	-61.481472
5984.375000	-60.638279
6000.000000	-60.746868
6015.625000	-61.606441
6031.250000	-63.104256
6046.875000	-64.471848
6062.500000	-65.757133
6078.125000	-66.552406
6093.750000	-67.303619
6109.375000	-67.769302
6125.000000	-68.112053
6140.625000	-68.264420
6156.250000	-67.989624
6171.875000	-67.574066
6187.500000	-66.765091
6203.125000	-65.770515
6218.750000	-64.519577
6234.375000	-62.946331
6250.000000	-62.080204
6265.625000	-61.883965
6281.250000	-62.700851
6296.875000	-64.260170
6312.500000	-65.914543
6328.125000	-67.320717
6343.750000	-68.483398
6359.375000	-69.509697
6375.000000	-70.033691
6390.625000	-70.323372
6406.250000	-70.288834
6421.875000	-70.031082
6437.500000	-69.624527
6453.125000	-68.768768
6468.750000	-67.795982
6484.375000	-66.360733
6500.000000	-64.666573
6515.625000	-64.039810
6531.250000	-64.378670
6546.875000	-65.782906
6562.500000	-67.438522
6578.125000	-69.394356
6593.750000	-71.105240
6609.375000	-72.216103
6625.000000	-73.278328
6640.625000	-73.899590
6656.250000	-74.367477
6671.875000	-74.206139
6687.500000	-73.821938
6703.125000	-73.413574
6718.750000	-72.444656
6734.375000	-71.102669
6750.000000	-69.804443
6765.625000	-68.538506
6781.250000	-68.181061
6796.875000	-69.068214
6812.500000	-71.042313
6828.125000	-73.162018
6843.750000	-75.149200
6859.375000	-76.719429
6875.000000	-77.846367
6890.625000	-78.873528
6906.250000	-79.609970
6921.875000	-79.772308
6937.500000	-79.970985
6953.125000	-79.926529
6968.750000	-79.351250
6984.375000	-78.698601
7000.000000	-77.376320
7015.625000	-75.858009
7031.250000	-74.718964
7046.875000	-74.830521
7062.500000	-76.535278
7078.125000	-78.916458
7093.750000	-81.195030
7109.375000	-83.118980
7125.000000	-84.683289
7140.625000	-85.890587
7156.250000	-86.715042
7171.875000	-87.439499
7187.500000	-87.812134
7203.125000	-87.935997
7218.750000	-88.013550
7234.375000	-87.441132
7250.000000	-86.519798
7265.625000	-85.668999
7281.250000	-84.630791
7296.875000	-83.976105
7312.500000	-84.779640
7328.125000	-87.073196
7343.750000	-89.197021
7359.375000	-90.750122
7375.000000	-92.148201
7390.625000	-93.232338
7406.250000	-93.721382
7421.875000	-93.815468
7437.500000	-94.037094
7453.125000	-94.159813
7468.750000	-94.299477
7484.375000	-94.522148
7500.000000	-94.564484
7515.625000	-94.620888
7531.250000	-94.484596
7546.875000	-94.598000
7562.500000	-95.099945
7578.125000	-96.071609
7593.750000	-97.320824
7609.375000	-98.476097
7625.000000	-99.551239
7640.625000	-100.641159
7656.250000	-102.217644
7671.875000	-103.853622
7687.500000	-105.701736
7703.125000	-107.516975
7718.750000	-109.630745
7734.375000	-111.967606
7750.000000	-114.794113
7765.625000	-117.698517
7781.250000	-121.174675
7796.875000	-124.967636
7812.500000	-129.262909
7828.125000	-133.543106
7843.750000	-138.771744
7859.375000	-144.052139
7875.000000	-149.675720
7890.625000	-156.272339
7906.250000	-162.934494
7921.875000	-169.573792
7937.500000	-173.492020
7953.125000	-174.568192
7968.750000	-174.940094
7984.375000	-175.109268
