Frequency (Hz)	Level (dB)
15.625000	-74.028366
31.250000	-69.125565
46.875000	-65.928535
62.500000	-63.927895
78.125000	-62.400055
93.750000	-61.800476
109.375000	-61.090019
125.000000	-60.560379
140.625000	-61.538177
156.250000	-60.714851
171.875000	-59.316624
187.500000	-57.386784
203.125000	-54.750778
218.750000	-51.055511
234.375000	-46.891026
250.000000	-45.326275
265.625000	-47.527729
281.250000	-51.240856
296.875000	-54.042221
312.500000	-55.854870
328.125000	-57.030628
343.750000	-57.710155
359.375000	-57.977726
375.000000	-57.920368
390.625000	-57.546154
406.250000	-56.929253
421.875000	-56.080967
437.500000	-54.959690
453.125000	-53.453796
468.750000	-51.376373
484.375000	-48.657101
500.000000	-46.143505
515.625000	-45.610451
531.250000	-47.442627
546.875000	-50.068455
562.500000	-52.079224
578.125000	-53.316048
593.750000	-54.077160
609.375000	-54.601410
625.000000	-54.885349
640.625000	-54.835098
656.250000	-54.400578
671.875000	-53.537125
687.500000	-52.215286
703.125000	-50.409740
718.750000	-48.340900
734.375000	-46.635517
750.000000	-45.866638
765.625000	-45.889824
781.250000	-46.414783
796.875000	-47.480274
812.500000	-48.935627
828.125000	-50.352207
843.750000	-51.463062
859.375000	-52.171032
875.000000	-52.483715
890.625000	-52.444164
906.250000	-52.099495
921.875000	-51.542866
937.500000	-50.847870
953.125000	-50.062496
968.750000	-49.188965
984.375000	-48.320496
1000.000000	-47.704060
1015.625000	-47.500534
1031.250000	-47.557758
1046.875000	-47.640553
1062.500000	-47.752281
1078.125000	-48.043972
1093.750000	-48.465240
1109.375000	-48.756645
1125.000000	-48.863075
1140.625000	-48.926701
1156.250000	-48.947117
1171.875000	-48.855095
1187.500000	-48.646858
1203.125000	-48.305157
1218.750000	-47.733616
1234.375000	-46.800930
1250.000000	-45.416397
1265.625000	-43.474556
1281.250000	-40.899368
1296.875000	-38.043888
1312.500000	-36.319862
1328.125000	-36.886318
1343.750000	-39.083370
1359.375000	-41.349606
1375.000000	-43.024799
1390.625000	-44.130756
1406.250000	-44.775913
1421.875000	-45.030396
1437.500000	-44.934151
1453.125000	-44.499691
1468.750000	-43.714924
1484.375000	-42.549786
1500.000000	-40.959530
1515.625000	-38.922287
1531.250000	-36.647171
1546.875000	-34.950199
1562.500000	-34.837246
1578.125000	-36.303776
1593.750000	-38.332649
1609.375000	-40.101315
1625.000000	-41.414341
1640.625000	-42.310097
1656.250000	-42.851242
1671.875000	-43.079872
1687.500000	-43.018768
1703.125000	-42.681675
1718.750000	-42.070225
1734.375000	-41.185982
1750.000000	-40.042290
1765.625000	-38.701065
1781.250000	-37.356491
1796.875000	-36.378223
1812.500000	-36.149307
1828.125000	-36.738667
1843.750000	-37.834335
1859.375000	-39.035759
1875.000000	-40.102699
1890.625000	-40.950062
1906.250000	-41.562820
1921.875000	-41.951897
1937.500000	-42.130257
1953.125000	-42.112938
1968.750000	-41.911884
1984.375000	-41.544815
2000.000000	-41.031849
2015.625000	-40.402645
2031.250000	-39.700100
2046.875000	-38.968609
2062.500000	-38.268410
2078.125000	-37.709270
2093.750000	-37.484928
2109.375000	-37.734447
2125.000000	-38.383442
2140.625000	-39.212578
2156.250000	-40.030960
2171.875000	-40.733330
2187.500000	-41.275890
2203.125000	-41.642990
2218.750000	-41.832081
2234.375000	-41.839424
2250.000000	-41.663456
2265.625000	-41.296150
2281.250000	-40.731594
2296.875000	-39.975830
2312.500000	-39.057785
2328.125000	-38.053486
2343.750000	-37.127167
2359.375000	-36.540596
2375.000000	-36.528889
2390.625000	-37.112045
2406.250000	-38.064400
2421.875000	-39.104389
2437.500000	-40.048023
2453.125000	-40.814102
2468.750000	-41.367115
2484.375000	-41.694725
2500.000000	-41.790894
2515.625000	-41.645294
2531.250000	-41.243221
2546.875000	-40.563774
2562.500000	-39.584831
2578.125000	-38.295124
2593.750000	-36.755680
2609.375000	-35.249187
2625.000000	-34.355583
2640.625000	-34.566032
2656.250000	-35.761932
2671.875000	-37.350033
2687.500000	-38.834023
2703.125000	-40.024918
2718.750000	-40.894554
2734.375000	-41.457684
2750.000000	-41.730831
2765.625000	-41.719963
2781.250000	-41.423790
2796.875000	-40.823158
2812.500000	-39.884018
2828.125000	-38.561100
2843.750000	-36.821060
2859.375000	-34.787579
2875.000000	-33.066231
2890.625000	-32.622269
2906.250000	-33.756866
2921.875000	-35.721878
2937.500000	-37.627090
2953.125000	-39.135540
2968.750000	-40.231834
2984.375000	-40.963795
3000.000000	-41.369560
3015.625000	-41.471680
3031.250000	-41.278152
3046.875000	-40.776756
3062.500000	-39.939087
3078.125000	-38.713280
3093.750000	-37.033871
3109.375000	-34.887123
3125.000000	-32.627960
3140.625000	-31.325062
3156.250000	-31.860645
3171.875000	-33.809292
3187.500000	-35.993340
3203.125000	-37.774734
3218.750000	-39.080647
3234.375000	-39.972836
3250.000000	-40.511269
3265.625000	-40.729961
3281.250000	-40.644962
3296.875000	-40.254757
3312.500000	-39.542168
3328.125000	-38.466026
3343.750000	-36.963634
3359.375000	-34.973633
3375.000000	-32.618164
3390.625000	-30.682989
3406.250000	-30.359255
3421.875000	-31.843061
3437.500000	-34.077759
3453.125000	-36.071743
3468.750000	-37.578026
3484.375000	-38.637459
3500.000000	-39.317451
3515.625000	-39.666470
3531.250000	-39.710480
3546.875000	-39.455338
3562.500000	-38.892227
3578.125000	-37.996216
3593.750000	-36.724491
3609.375000	-35.023987
3625.000000	-32.925823
3640.625000	-30.850668
3656.250000	-29.789688
3671.875000	-30.422518
3687.500000	-32.268223
3703.125000	-34.298531
3718.750000	-35.977936
3734.375000	-37.237888
3750.000000	-38.123745
3765.625000	-38.683125
3781.250000	-38.946083
3796.875000	-38.928806
3812.500000	-38.633728
3828.125000	-38.041573
3843.750000	-37.119656
3859.375000	-35.823574
3875.000000	-34.111980
3890.625000	-32.081505
3906.250000	-30.322414
3921.875000	-29.845814
3937.500000	-31.023821
3953.125000	-33.113720
3968.750000	-35.174530
3984.375000	-36.843697
4000.000000	-38.104992
4015.625000	-39.007866
4031.250000	-39.595036
4046.875000	-39.894188
4062.500000	-39.919876
4078.125000	-39.666382
4093.750000	-39.113892
4109.375000	-38.225521
4125.000000	-36.944431
4140.625000	-35.225906
4156.250000	-33.223984
4171.875000	-31.672899
4187.500000	-31.611265
4203.125000	-33.196655
4218.750000	-35.497517
4234.375000	-37.621891
4250.000000	-39.312218
4265.625000	-40.587322
4281.250000	-41.500050
4296.875000	-42.093189
4312.500000	-42.390335
4328.125000	-42.397602
4343.750000	-42.101768
4359.375000	-41.474335
4375.000000	-40.464928
4390.625000	-39.004581
4406.250000	-37.064919
4421.875000	-34.967976
4437.500000	-33.784885
4453.125000	-34.470024
4468.750000	-36.646614
4484.375000	-39.096176
4500.000000	-41.142303
4515.625000	-42.705486
4531.250000	-43.849930
4546.875000	-44.639187
4562.500000	-45.109707
4578.125000	-45.284328
4593.750000	-45.163960
4609.375000	-44.728237
4625.000000	-43.940098
4640.625000	-42.736691
4656.250000	-41.038994
4671.875000	-38.878788
4687.500000	-36.877113
4703.125000	-36.326046
4718.750000	-37.762226
4734.375000	-40.253998
4750.000000	-42.617168
4765.625000	-44.472023
4781.250000	-45.847382
4796.875000	-46.821049
4812.500000	-47.448750
4828.125000	-47.761936
4843.750000	-47.774158
4859.375000	-47.475330
4875.000000	-46.837780
4890.625000	-45.809807
4906.250000	-44.323997
4921.875000	-42.354336
4937.500000	-40.227428
4953.125000	-39.013680
4968.750000	-39.657452
4984.375000	-41.779568
5000.000000	-44.168835
5015.625000	-46.156292
5031.250000	-47.665203
5046.875000	-48.757641
5062.500000	-49.496159
5078.125000	-49.922428
5093.750000	-50.052208
5109.375000	-49.888718
5125.000000	-49.415565
5140.625000	-48.600117
5156.250000	-47.387836
5171.875000	-45.744419
5187.500000	-43.786533
5203.125000	-42.143509
5218.750000	-41.819382
5234.375000	-43.115849
5250.000000	-45.250015
5265.625000	-47.311871
5281.250000	-48.974010
5296.875000	-50.226334
5312.500000	-51.116516
5328.125000	-51.687958
5343.750000	-51.962688
5359.375000	-51.954151
5375.000000	-51.658325
5390.625000	-51.049774
5406.250000	-50.098213
5421.875000	-48.776871
5437.500000	-47.123066
5453.125000	-45.434364
5468.750000	-44.445415
5484.375000	-44.802017
5500.000000	-46.334133
5515.625000	-48.256153
5531.250000	-49.986458
5546.875000	-51.358585
5562.500000	-52.380268
5578.125000	-53.084866
5593.750000	-53.505806
5609.375000	-53.655762
5625.000000	-53.545433
5640.625000	-53.171249
5656.250000	-52.523067
5671.875000	-51.582752
5687.500000	-50.358093
5703.125000	-48.948471
5718.750000	-47.691849
5734.375000	-47.128307
5750.000000	-47.578617
5765.625000	-48.820400
5781.250000	-50.328838
5796.875000	-51.721893
5812.500000	-52.867210
5828.125000	-53.736423
5843.750000	-54.342503
5859.375000	-54.706917
5875.000000	-54.832867
5890.625000	-54.722687
5906.250000	-54.377155
5921.875000	-53.781242
5937.500000	-52.929909
5953.125000	-51.835190
5968.750000	-50.569103
5984.375000	-49.355038
6000.000000	-48.609390
6015.625000	-48.704498
6031.250000	-49.630493
6046.875000	-51.002239
6062.500000	-52.405994
6078.125000	-53.618584
6093.750000	-54.575600
6109.375000	-55.271366
6125.000000	-55.715420
6140.625000	-55.915913
6156.250000	-55.866180
6171.875000	-55.560711
6187.500000	-54.987045
6203.125000	-54.122707
6218.750000	-52.956276
6234.375000	-51.552971
6250.000000	-50.160027
6265.625000	-49.328918
6281.250000	-49.558861
6296.875000	-50.796097
6312.500000	-52.483131
6328.125000	-54.110550
6343.750000	-55.474014
6359.375000	-56.533195
6375.000000	-57.298813
6390.625000	-57.793320
6406.250000	-58.022762
6421.875000	-57.987099
6437.500000	-57.685654
6453.125000	-57.076523
6468.750000	-56.146317
6484.375000	-54.880535
6500.000000	-53.349506
6515.625000	-51.936176
6531.250000	-51.368378
6546.875000	-52.111923
6562.500000	-53.845409
6578.125000	-55.827763
6593.750000	-57.594082
6609.375000	-59.027309
6625.000000	-60.130466
6640.625000	-60.926098
6656.250000	-61.450542
6671.875000	-61.694160
6687.500000	-61.682625
6703.125000	-61.389175
6718.750000	-60.782940
6734.375000	-59.835850
6750.000000	-58.534878
6765.625000	-57.006470
6781.250000	-55.785046
6796.875000	-55.677643
6812.500000	-56.964291
6828.125000	-59.060131
6843.750000	-61.209831
6859.375000	-63.052311
6875.000000	-64.535858
6890.625000	-65.698349
6906.250000	-66.552246
6921.875000	-67.139893
6937.500000	-67.454865
6953.125000	-67.502594
6968.750000	-67.250977
6984.375000	-66.677261
7000.000000	-65.725685
7015.625000	-64.408897
7031.250000	-62.940834
7046.875000	-62.046211
7062.500000	-62.543697
7078.125000	-64.444237
7093.750000	-66.902290
7109.375000	-69.230156
7125.000000	-71.168648
7140.625000	-72.743721
7156.250000	-73.969833
7171.875000	-74.947800
7187.500000	-75.631493
7203.125000	-76.028946
7218.750000	-76.174225
7234.375000	-76.023643
7250.000000	-75.486603
7265.625000	-74.533890
7281.250000	-73.232216
7296.875000	-71.981819
7312.500000	-71.680557
7328.125000	-73.005936
7343.750000	-75.556541
7359.375000	-78.270126
7375.000000	-80.642326
7390.625000	-82.552795
7406.250000	-84.076408
7421.875000	-85.440254
7437.500000	-86.610039
7453.125000	-87.474609
7468.750000	-87.903221
7484.375000	-88.198921
7500.000000	-88.450821
7515.625000	-88.337601
7531.250000	-87.921303
7546.875000	-87.375946
7562.500000	-86.984085
7578.125000	-87.833672
7593.750000	-90.450394
7609.375000	-93.632027
7625.000000	-96.451469
7640.625000	-98.670174
7656.250000	-100.566086
7671.875000	-102.624992
7687.500000	-104.588074
7703.125000	-106.580902
7718.750000	-108.468147
7734.375000	-110.312607
7750.000000	-112.562477
7765.625000	-114.607513
7781.250000	-116.492531
7796.875000	-118.643631
7812.500000	-121.497620
7828.125000	-125.959801
7843.750000	-133.392166
7859.375000	-141.626740
7875.000000	-146.586777
7890.625000	-152.908951
7906.250000	-158.464233
7921.875000	-161.964310
7937.500000	-163.494659
7953.125000	-163.801239
7968.750000	-163.947769
7984.375000	-164.055298
