Frequency (Hz)	Level (dB)
15.625000	-71.966339
31.250000	-74.332420
46.875000	-70.005043
62.500000	-64.525024
78.125000	-61.274818
93.750000	-60.487511
109.375000	-59.705875
125.000000	-58.744389
140.625000	-59.203415
156.250000	-57.339222
171.875000	-54.356445
187.500000	-49.735134
203.125000	-44.728214
218.750000	-43.806732
234.375000	-47.458210
250.000000	-51.735035
265.625000	-54.353985
281.250000	-55.889565
296.875000	-56.745781
312.500000	-57.048878
328.125000	-56.854477
343.750000	-56.194832
359.375000	-55.020111
375.000000	-53.339439
390.625000	-51.205555
406.250000	-48.905804
421.875000	-47.043884
437.500000	-46.278843
453.125000	-47.126369
468.750000	-49.129131
484.375000	-51.286976
500.000000	-52.946430
515.625000	-53.948158
531.250000	-54.295303
546.875000	-54.240570
562.500000	-53.874851
578.125000	-53.015388
593.750000	-51.463070
609.375000	-48.973675
625.000000	-45.346794
640.625000	-42.251976
656.250000	-42.370258
671.875000	-45.306740
687.500000	-48.034412
703.125000	-49.438766
718.750000	-50.266994
734.375000	-50.968399
750.000000	-51.460785
765.625000	-51.525486
781.250000	-51.073490
796.875000	-50.061314
812.500000	-48.497494
828.125000	-46.798813
843.750000	-45.804195
859.375000	-45.540493
875.000000	-45.050968
890.625000	-45.164093
906.250000	-46.756603
921.875000	-48.673443
937.500000	-49.873711
953.125000	-50.307770
968.750000	-50.196949
984.375000	-49.815556
1000.000000	-49.435795
1015.625000	-49.075855
1031.250000	-48.562607
1046.875000	-47.828533
1062.500000	-46.987087
1078.125000	-45.962765
1093.750000	-44.200176
1109.375000	-41.265522
1125.000000	-38.008347
1140.625000	-36.801735
1156.250000	-38.434067
1171.875000	-41.114742
1187.500000	-43.105900
1203.125000	-44.255989
1218.750000	-44.742317
1234.375000	-44.675648
1250.000000	-44.090622
1265.625000	-42.948814
1281.250000	-41.114826
1296.875000	-38.350037
1312.500000	-34.690586
1328.125000	-32.091457
1343.750000	-32.725826
1359.375000	-35.805729
1375.000000	-38.725105
1390.625000	-40.616917
1406.250000	-41.721382
1421.875000	-42.255367
1437.500000	-42.348831
1453.125000	-42.032024
1468.750000	-41.271057
1484.375000	-40.009502
1500.000000	-38.181477
1515.625000	-35.823860
1531.250000	-33.526901
1546.875000	-32.570946
1562.500000	-33.550827
1578.125000	-35.624687
1593.750000	-37.591072
1609.375000	-39.009632
1625.000000	-39.902523
1640.625000	-40.349426
1656.250000	-40.411121
1671.875000	-40.128113
1687.500000	-39.523827
1703.125000	-38.629177
1718.750000	-37.522114
1734.375000	-36.382553
1750.000000	-35.525551
1765.625000	-35.266457
1781.250000	-35.677277
1796.875000	-36.529942
1812.500000	-37.499977
1828.125000	-38.368515
1843.750000	-39.041092
1859.375000	-39.493465
1875.000000	-39.730431
1890.625000	-39.769875
1906.250000	-39.627686
1921.875000	-39.317055
1937.500000	-38.847694
1953.125000	-38.205910
1968.750000	-37.378483
1984.375000	-36.485989
2000.000000	-35.772549
2015.625000	-35.428638
2031.250000	-35.515324
2046.875000	-35.969719
2062.500000	-36.646694
2078.125000	-37.388950
2093.750000	-38.069927
2109.375000	-38.608170
2125.000000	-38.952644
2140.625000	-39.068264
2156.250000	-38.925488
2171.875000	-38.495956
2187.500000	-37.752041
2203.125000	-36.674946
2218.750000	-35.306072
2234.375000	-33.878765
2250.000000	-32.919807
2265.625000	-32.952396
2281.250000	-33.968708
2296.875000	-35.438095
2312.500000	-36.836857
2328.125000	-37.926132
2343.750000	-38.647083
2359.375000	-38.993778
2375.000000	-38.965851
2390.625000	-38.550720
2406.250000	-37.714188
2421.875000	-36.392593
2437.500000	-34.531601
2453.125000	-32.309994
2468.750000	-30.635715
2484.375000	-30.669201
2500.000000	-32.398918
2515.625000	-34.653683
2531.250000	-36.536255
2546.875000	-37.869362
2562.500000	-38.703827
2578.125000	-39.092556
2593.750000	-39.057953
2609.375000	-38.592804
2625.000000	-37.651600
2640.625000	-36.138184
2656.250000	-33.915028
2671.875000	-31.082355
2687.500000	-28.919470
2703.125000	-29.129490
2718.750000	-31.521103
2734.375000	-34.277683
2750.000000	-36.355160
2765.625000	-37.742538
2781.250000	-38.576084
2796.875000	-38.939892
2812.500000	-38.870403
2828.125000	-38.365276
2843.750000	-37.372662
2859.375000	-35.783493
2875.000000	-33.412254
2890.625000	-30.254259
2906.250000	-27.729170
2921.875000	-27.904749
2937.500000	-30.585394
2953.125000	-33.593922
2968.750000	-35.768345
2984.375000	-37.188446
3000.000000	-38.029881
3015.625000	-38.392292
3031.250000	-38.318562
3046.875000	-37.807812
3062.500000	-36.814129
3078.125000	-35.228546
3093.750000	-32.859863
3109.375000	-29.626421
3125.000000	-26.809589
3140.625000	-26.664358
3156.250000	-29.250679
3171.875000	-32.351017
3187.500000	-34.603870
3203.125000	-36.063465
3218.750000	-36.925377
3234.375000	-37.300739
3250.000000	-37.236801
3265.625000	-36.738861
3281.250000	-35.769062
3296.875000	-34.234795
3312.500000	-31.975960
3328.125000	-28.925871
3343.750000	-26.190861
3359.375000	-25.783852
3375.000000	-27.942791
3390.625000	-30.873220
3406.250000	-33.130516
3421.875000	-34.621231
3437.500000	-35.522427
3453.125000	-35.940128
3468.750000	-35.926121
3484.375000	-35.491505
3500.000000	-34.606087
3515.625000	-33.199852
3531.250000	-31.159981
3546.875000	-28.473404
3562.500000	-26.023193
3578.125000	-25.424332
3593.750000	-27.038372
3609.375000	-29.640215
3625.000000	-31.879164
3640.625000	-33.455177
3656.250000	-34.487019
3671.875000	-35.071228
3687.500000	-35.254520
3703.125000	-35.051323
3718.750000	-34.445980
3734.375000	-33.380474
3750.000000	-31.746656
3765.625000	-29.438997
3781.250000	-26.837000
3796.875000	-25.462620
3812.500000	-26.433937
3828.125000	-29.066799
3843.750000	-31.752607
3859.375000	-33.777992
3875.000000	-35.192398
3890.625000	-36.109039
3906.250000	-36.596455
3921.875000	-36.683548
3937.500000	-36.356022
3953.125000	-35.564735
3968.750000	-34.205662
3984.375000	-32.116684
4000.000000	-29.343763
4015.625000	-27.196390
4031.250000	-27.554907
4046.875000	-30.278784
4062.500000	-33.399075
4078.125000	-35.779552
4093.750000	-37.444092
4109.375000	-38.548862
4125.000000	-39.189598
4140.625000	-39.404987
4156.250000	-39.194508
4171.875000	-38.517990
4187.500000	-37.277313
4203.125000	-35.293205
4218.750000	-32.465458
4234.375000	-29.867212
4250.000000	-29.699175
4265.625000	-32.299461
4281.250000	-35.647232
4296.875000	-38.230770
4312.500000	-40.019958
4328.125000	-41.202766
4343.750000	-41.891064
4359.375000	-42.139324
4375.000000	-41.958164
4390.625000	-41.311672
4406.250000	-40.106083
4421.875000	-38.185146
4437.500000	-35.468800
4453.125000	-32.927032
4468.750000	-32.619709
4484.375000	-34.962563
4500.000000	-38.141171
4515.625000	-40.655998
4531.250000	-42.407494
4546.875000	-43.568356
4562.500000	-44.253857
4578.125000	-44.517574
4593.750000	-44.361530
4609.375000	-43.749367
4625.000000	-42.596767
4640.625000	-40.767464
4656.250000	-38.195278
4671.875000	-35.712276
4687.500000	-35.222206
4703.125000	-37.288780
4718.750000	-40.340061
4734.375000	-42.853764
4750.000000	-44.629726
4765.625000	-45.812614
4781.250000	-46.509903
4796.875000	-46.777039
4812.500000	-46.625713
4828.125000	-46.035923
4843.750000	-44.951691
4859.375000	-43.300751
4875.000000	-41.132019
4890.625000	-39.131680
4906.250000	-38.638287
4921.875000	-40.131268
4937.500000	-42.585827
4953.125000	-44.812195
4968.750000	-46.471153
4984.375000	-47.607105
5000.000000	-48.300900
5015.625000	-48.601772
5031.250000	-48.533062
5046.875000	-48.095188
5062.500000	-47.265102
5078.125000	-46.011280
5093.750000	-44.364075
5109.375000	-42.635918
5125.000000	-41.607178
5140.625000	-41.974091
5156.250000	-43.540455
5171.875000	-45.464260
5187.500000	-47.134563
5203.125000	-48.383137
5218.750000	-49.216915
5234.375000	-49.671997
5250.000000	-49.773407
5265.625000	-49.535984
5281.250000	-48.957634
5296.875000	-48.034481
5312.500000	-46.774391
5328.125000	-45.303749
5343.750000	-44.012913
5359.375000	-43.506794
5375.000000	-44.096321
5390.625000	-45.462368
5406.250000	-47.003258
5421.875000	-48.336494
5437.500000	-49.343292
5453.125000	-50.008236
5468.750000	-50.343426
5484.375000	-50.350937
5500.000000	-50.018021
5515.625000	-49.326202
5531.250000	-48.240967
5546.875000	-46.754597
5562.500000	-45.013489
5578.125000	-43.581516
5593.750000	-43.273083
5609.375000	-44.329189
5625.000000	-46.120064
5640.625000	-47.874214
5656.250000	-49.257530
5671.875000	-50.220131
5687.500000	-50.783527
5703.125000	-50.965176
5718.750000	-50.772091
5734.375000	-50.188877
5750.000000	-49.167282
5765.625000	-47.652714
5781.250000	-45.675449
5796.875000	-43.701782
5812.500000	-42.822266
5828.125000	-43.718052
5843.750000	-45.776615
5859.375000	-47.879776
5875.000000	-49.522640
5890.625000	-50.666965
5906.250000	-51.363308
5921.875000	-51.654793
5937.500000	-51.560268
5953.125000	-51.065926
5968.750000	-50.129639
5984.375000	-48.691330
6000.000000	-46.723003
6015.625000	-44.548946
6031.250000	-43.255455
6046.875000	-43.822674
6062.500000	-45.866375
6078.125000	-48.145908
6093.750000	-49.971413
6109.375000	-51.268803
6125.000000	-52.095928
6140.625000	-52.512367
6156.250000	-52.539780
6171.875000	-52.173164
6187.500000	-51.376236
6203.125000	-50.090759
6218.750000	-48.242607
6234.375000	-45.983448
6250.000000	-44.242813
6265.625000	-44.288559
6281.250000	-46.164539
6296.875000	-48.630314
6312.500000	-50.711521
6328.125000	-52.231434
6343.750000	-53.246899
6359.375000	-53.832474
6375.000000	-54.018829
6390.625000	-53.811508
6406.250000	-53.177940
6421.875000	-52.053612
6437.500000	-50.345394
6453.125000	-48.070419
6468.750000	-45.965336
6484.375000	-45.522751
6500.000000	-47.240303
6515.625000	-49.929314
6531.250000	-52.307499
6546.875000	-54.072693
6562.500000	-55.299004
6578.125000	-56.066853
6593.750000	-56.420647
6609.375000	-56.377743
6625.000000	-55.919926
6640.625000	-54.982754
6656.250000	-53.474174
6671.875000	-51.344784
6687.500000	-49.113251
6703.125000	-48.272545
6718.750000	-49.711353
6734.375000	-52.500496
6750.000000	-55.134949
6765.625000	-57.145443
6781.250000	-58.587784
6796.875000	-59.564213
6812.500000	-60.111752
6828.125000	-60.258770
6843.750000	-60.003277
6859.375000	-59.290695
6875.000000	-58.026352
6890.625000	-56.125004
6906.250000	-53.910603
6921.875000	-52.749493
6937.500000	-53.849472
6953.125000	-56.635895
6968.750000	-59.523643
6984.375000	-61.805344
7000.000000	-63.486141
7015.625000	-64.674118
7031.250000	-65.449509
7046.875000	-65.827652
7062.500000	-65.813942
7078.125000	-65.349449
7093.750000	-64.349281
7109.375000	-62.743042
7125.000000	-60.611069
7140.625000	-59.032269
7156.250000	-59.633575
7171.875000	-62.420105
7187.500000	-65.716423
7203.125000	-68.340820
7218.750000	-70.305931
7234.375000	-71.786827
7250.000000	-72.828934
7265.625000	-73.491302
7281.250000	-73.739105
7296.875000	-73.600037
7312.500000	-72.963631
7328.125000	-71.730736
7343.750000	-69.962898
7359.375000	-68.521240
7375.000000	-68.883980
7390.625000	-71.387184
7406.250000	-74.715248
7421.875000	-77.651566
7437.500000	-79.874710
7453.125000	-81.533485
7468.750000	-82.830353
7484.375000	-83.724533
7500.000000	-84.163132
7515.625000	-84.091331
7531.250000	-83.425201
7546.875000	-82.228867
7562.500000	-80.845818
7578.125000	-76.711693
7593.750000	-73.443390
7609.375000	-74.733597
7625.000000	-80.349899
7640.625000	-87.435608
7656.250000	-92.332489
7671.875000	-95.923965
7687.500000	-98.676201
7703.125000	-100.315109
7718.750000	-101.902084
7734.375000	-104.339699
7750.000000	-107.798172
7765.625000	-111.939621
7781.250000	-116.723343
7796.875000	-121.193199
7812.500000	-124.784271
7828.125000	-129.967667
7843.750000	-135.697357
7859.375000	-141.749939
7875.000000	-147.662613
7890.625000	-152.875565
7906.250000	-156.265884
7921.875000	-157.701218
7937.500000	-158.542404
7953.125000	-158.792374
7968.750000	-159.009766
7984.375000	-159.156097
