Frequency (Hz)	Level (dB)
15.625000	-79.406021
31.250000	-76.713531
46.875000	-74.383553
62.500000	-72.325531
78.125000	-72.412521
93.750000	-73.557205
109.375000	-72.061356
125.000000	-71.485710
140.625000	-76.783409
156.250000	-78.159096
171.875000	-78.387901
187.500000	-78.611786
203.125000	-78.156815
218.750000	-77.274666
234.375000	-75.664352
250.000000	-75.407150
265.625000	-74.443634
281.250000	-72.283012
296.875000	-69.262177
312.500000	-65.940849
328.125000	-62.808380
343.750000	-62.594810
359.375000	-65.331383
375.000000	-68.588425
390.625000	-71.054680
406.250000	-72.940323
421.875000	-74.447678
437.500000	-75.278008
453.125000	-75.512817
468.750000	-75.945625
484.375000	-76.165802
500.000000	-76.068459
515.625000	-76.030640
531.250000	-75.842247
546.875000	-75.664474
562.500000	-74.750053
578.125000	-73.956207
593.750000	-73.024620
609.375000	-71.751190
625.000000	-69.772995
640.625000	-67.160149
656.250000	-64.308846
671.875000	-61.673264
687.500000	-61.112427
703.125000	-63.139999
718.750000	-65.739311
734.375000	-67.480988
750.000000	-68.399147
765.625000	-69.740784
781.250000	-70.730209
796.875000	-71.778908
812.500000	-72.468193
828.125000	-72.569763
843.750000	-72.542488
859.375000	-72.393921
875.000000	-71.910713
890.625000	-71.533432
906.250000	-70.602089
921.875000	-69.590530
937.500000	-68.161064
953.125000	-66.615547
968.750000	-65.818222
984.375000	-64.711449
1000.000000	-63.366074
1015.625000	-61.874596
1031.250000	-61.282158
1046.875000	-62.119926
1062.500000	-63.821686
1078.125000	-65.691315
1093.750000	-67.005608
1109.375000	-68.144363
1125.000000	-68.890640
1140.625000	-69.417488
1156.250000	-69.738083
1171.875000	-69.807426
1187.500000	-69.699028
1203.125000	-69.699005
1218.750000	-69.507713
1234.375000	-68.974121
1250.000000	-68.258232
1265.625000	-67.797081
1281.250000	-67.306175
1296.875000	-66.927811
1312.500000	-66.220192
1328.125000	-65.288185
1343.750000	-64.226524
1359.375000	-63.003109
1375.000000	-61.370621
1390.625000	-60.280594
1406.250000	-60.459820
1421.875000	-61.329548
1437.500000	-62.317524
1453.125000	-63.056885
1468.750000	-63.657864
1484.375000	-64.319260
1500.000000	-64.641907
1515.625000	-64.836021
1531.250000	-64.734055
1546.875000	-64.440636
1562.500000	-64.345726
1578.125000	-64.444870
1593.750000	-64.200264
1609.375000	-64.222298
1625.000000	-63.439579
1640.625000	-62.866188
1656.250000	-62.112068
1671.875000	-60.952175
1687.500000	-59.320847
1703.125000	-57.271725
1718.750000	-54.672539
1734.375000	-51.615063
1750.000000	-49.933846
1765.625000	-50.276913
1781.250000	-51.944530
1796.875000	-54.132717
1812.500000	-56.280777
1828.125000	-57.845535
1843.750000	-58.784344
1859.375000	-59.699005
1875.000000	-59.997841
1890.625000	-60.130787
1906.250000	-60.323383
1921.875000	-60.311668
1937.500000	-59.976326
1953.125000	-59.613388
1968.750000	-59.123543
1984.375000	-57.933327
2000.000000	-56.587093
2015.625000	-55.150188
2031.250000	-53.043869
2046.875000	-50.746929
2062.500000	-48.998871
2078.125000	-48.295601
2093.750000	-48.980743
2109.375000	-50.580387
2125.000000	-52.324223
2140.625000	-54.016956
2156.250000	-55.302376
2171.875000	-56.377838
2187.500000	-57.074669
2203.125000	-57.527546
2218.750000	-57.749271
2234.375000	-57.910282
2250.000000	-57.818455
2265.625000	-57.619152
2281.250000	-57.564404
2296.875000	-57.321301
2312.500000	-56.724579
2328.125000	-55.726002
2343.750000	-54.795273
2359.375000	-53.824821
2375.000000	-52.888733
2390.625000	-51.979568
2406.250000	-51.179996
2421.875000	-50.883579
2437.500000	-51.410896
2453.125000	-52.577015
2468.750000	-53.665779
2484.375000	-54.708611
2500.000000	-55.619461
2515.625000	-56.444069
2531.250000	-56.785595
2546.875000	-57.710007
2562.500000	-58.136791
2578.125000	-58.448647
2593.750000	-58.584106
2609.375000	-58.728291
2625.000000	-58.815334
2640.625000	-58.630390
2656.250000	-58.287701
2671.875000	-57.964249
2687.500000	-57.631107
2703.125000	-57.143223
2718.750000	-56.487747
2734.375000	-55.655891
2750.000000	-54.824318
2765.625000	-54.105808
2781.250000	-53.725441
2796.875000	-53.852463
2812.500000	-54.035816
2828.125000	-54.517521
2843.750000	-55.259480
2859.375000	-56.061363
2875.000000	-56.668724
2890.625000	-57.700569
2906.250000	-58.197731
2921.875000	-58.340927
2937.500000	-58.526817
2953.125000	-58.845711
2968.750000	-58.897850
2984.375000	-59.274704
3000.000000	-59.015293
3015.625000	-58.909054
3031.250000	-58.772881
3046.875000	-58.555740
3062.500000	-58.143543
3078.125000	-57.376755
3093.750000	-56.521896
3109.375000	-55.792923
3125.000000	-54.627693
3140.625000	-53.661171
3156.250000	-53.370003
3171.875000	-53.506710
3187.500000	-53.633644
3203.125000	-54.248753
3218.750000	-55.083008
3234.375000	-56.025360
3250.000000	-56.747330
3265.625000	-57.390648
3281.250000	-57.956665
3296.875000	-58.621254
3312.500000	-59.138985
3328.125000	-59.362778
3343.750000	-59.074234
3359.375000	-59.172672
3375.000000	-58.959129
3390.625000	-58.421764
3406.250000	-57.946457
3421.875000	-57.304779
3437.500000	-56.403450
3453.125000	-55.082169
3468.750000	-53.916752
3484.375000	-52.326591
3500.000000	-51.001728
3515.625000	-50.416779
3531.250000	-50.601807
3546.875000	-51.862274
3562.500000	-53.285515
3578.125000	-54.786709
3593.750000	-55.866188
3609.375000	-56.510002
3625.000000	-57.596035
3640.625000	-58.057285
3656.250000	-58.588909
3671.875000	-58.730057
3687.500000	-58.949066
3703.125000	-58.908730
3718.750000	-58.438850
3734.375000	-57.851009
3750.000000	-57.202721
3765.625000	-56.659996
3781.250000	-55.460983
3796.875000	-54.136223
3812.500000	-52.314796
3828.125000	-50.813835
3843.750000	-49.431419
3859.375000	-48.688736
3875.000000	-49.335526
3890.625000	-50.516510
3906.250000	-52.070011
3921.875000	-53.706429
3937.500000	-55.058346
3953.125000	-56.158482
3968.750000	-56.837036
3984.375000	-57.360210
4000.000000	-57.829865
4015.625000	-58.178600
4031.250000	-58.072624
4046.875000	-58.021381
4062.500000	-57.791286
4078.125000	-57.536270
4093.750000	-56.744217
4109.375000	-55.996456
4125.000000	-54.906689
4140.625000	-53.592899
4156.250000	-52.207970
4171.875000	-50.718616
4187.500000	-49.141602
4203.125000	-48.335381
4218.750000	-48.819763
4234.375000	-50.074764
4250.000000	-51.653339
4265.625000	-53.264549
4281.250000	-54.746140
4296.875000	-56.054302
4312.500000	-56.856838
4328.125000	-57.272331
4343.750000	-57.990547
4359.375000	-58.173965
4375.000000	-58.327644
4390.625000	-58.396130
4406.250000	-58.229679
4421.875000	-58.077671
4437.500000	-57.804321
4453.125000	-57.497059
4468.750000	-56.894238
4484.375000	-55.853054
4500.000000	-54.344879
4515.625000	-52.768150
4531.250000	-51.496021
4546.875000	-50.264549
4562.500000	-50.037212
4578.125000	-50.898857
4593.750000	-52.378075
4609.375000	-54.267872
4625.000000	-55.868622
4640.625000	-57.316185
4656.250000	-58.480549
4671.875000	-59.474159
4687.500000	-60.176510
4703.125000	-60.985126
4718.750000	-61.215332
4734.375000	-61.441166
4750.000000	-61.422035
4765.625000	-61.336720
4781.250000	-61.122334
4796.875000	-60.635010
4812.500000	-59.952526
4828.125000	-59.186588
4843.750000	-57.559559
4859.375000	-56.276794
4875.000000	-54.542995
4890.625000	-52.725403
4906.250000	-51.971050
4921.875000	-52.684338
4937.500000	-54.545475
4953.125000	-56.864624
4968.750000	-58.710339
4984.375000	-60.382977
5000.000000	-61.763882
5015.625000	-62.666489
5031.250000	-63.453331
5046.875000	-63.901657
5062.500000	-64.422592
5078.125000	-64.866188
5093.750000	-64.952713
5109.375000	-64.737869
5125.000000	-64.483711
5140.625000	-64.183571
5156.250000	-63.660656
5171.875000	-62.528725
5187.500000	-61.059719
5203.125000	-59.858204
5218.750000	-57.688202
5234.375000	-55.553398
5250.000000	-54.646687
5265.625000	-55.181976
5281.250000	-57.236961
5296.875000	-59.334450
5312.500000	-61.492741
5328.125000	-63.376472
5343.750000	-64.733055
5359.375000	-65.567368
5375.000000	-66.429092
5390.625000	-67.236511
5406.250000	-67.834213
5421.875000	-67.896027
5437.500000	-67.726486
5453.125000	-67.730209
5468.750000	-67.469635
5484.375000	-66.961418
5500.000000	-66.492439
5515.625000	-65.305328
5531.250000	-64.264214
5546.875000	-62.923893
5562.500000	-60.729538
5578.125000	-58.399532
5593.750000	-57.001675
5609.375000	-57.404915
5625.000000	-59.519875
5640.625000	-61.667168
5656.250000	-63.696362
5671.875000	-65.688705
5687.500000	-67.008705
5703.125000	-68.132797
5718.750000	-69.111664
5734.375000	-69.847649
5750.000000	-70.220627
5765.625000	-70.471886
5781.250000	-70.468819
5796.875000	-70.480598
5812.500000	-70.311737
5828.125000	-70.043663
5843.750000	-69.052681
5859.375000	-68.193184
5875.000000	-67.024513
5890.625000	-65.295380
5906.250000	-63.218449
5921.875000	-60.952526
5937.500000	-59.392048
5953.125000	-59.540726
5968.750000	-61.369793
5984.375000	-64.028961
6000.000000	-66.327843
6015.625000	-68.019997
6031.250000	-69.445396
6046.875000	-70.527496
6062.500000	-71.516663
6078.125000	-72.009300
6093.750000	-72.681534
6109.375000	-72.914658
6125.000000	-73.195137
6140.625000	-73.236870
6156.250000	-72.960640
6171.875000	-72.494225
6187.500000	-71.847488
6203.125000	-71.175446
6218.750000	-69.969444
6234.375000	-68.629608
6250.000000	-66.614143
6265.625000	-64.215164
6281.250000	-62.251259
6296.875000	-62.283302
6312.500000	-64.510902
6328.125000	-67.025375
6343.750000	-69.075333
6359.375000	-71.219856
6375.000000	-72.950409
6390.625000	-74.280693
6406.250000	-75.054054
6421.875000	-75.822388
6437.500000	-76.532555
6453.125000	-77.023582
6468.750000	-77.420990
6484.375000	-77.320244
6500.000000	-77.276894
6515.625000	-77.016632
6531.250000	-76.322441
6546.875000	-75.583214
6562.500000	-75.017654
6578.125000	-73.688416
6593.750000	-71.975334
6609.375000	-69.761047
6625.000000	-68.130333
6640.625000	-67.996361
6656.250000	-69.893616
6671.875000	-72.490135
6687.500000	-74.976173
6703.125000	-77.212662
6718.750000	-78.988197
6734.375000	-79.856110
6750.000000	-81.000778
6765.625000	-82.209702
6781.250000	-82.707520
6796.875000	-83.203850
6812.500000	-83.725700
6828.125000	-84.036125
6843.750000	-84.127609
6859.375000	-84.045631
6875.000000	-83.915337
6890.625000	-83.307709
6906.250000	-82.660294
6921.875000	-81.902748
6937.500000	-80.489571
6953.125000	-79.037415
6968.750000	-78.113670
6984.375000	-78.392441
7000.000000	-80.203629
7015.625000	-82.524536
7031.250000	-84.542236
7046.875000	-86.432831
7062.500000	-87.959167
7078.125000	-89.083328
7093.750000	-89.787575
7109.375000	-90.614998
7125.000000	-91.337158
7140.625000	-91.879646
7156.250000	-92.030449
7171.875000	-92.395973
7187.500000	-92.754715
7203.125000	-92.844582
7218.750000	-92.682457
7234.375000	-92.575554
7250.000000	-92.663849
7265.625000	-92.370087
7281.250000	-91.947014
7296.875000	-91.606819
7312.500000	-91.423439
7328.125000	-91.600235
7343.750000	-92.328987
7359.375000	-93.183571
7375.000000	-93.959366
7390.625000	-94.694809
7406.250000	-94.830215
7421.875000	-94.887619
7437.500000	-95.296509
7453.125000	-95.237877
7468.750000	-95.161003
7484.375000	-95.481224
7500.000000	-95.493217
7515.625000	-95.632202
7531.250000	-95.877327
7546.875000	-96.191017
7562.500000	-96.549507
7578.125000	-97.203842
7593.750000	-97.867950
7609.375000	-98.867599
7625.000000	-99.735512
7640.625000	-100.862114
7656.250000	-102.241318
7671.875000	-103.558510
7687.500000	-105.189835
7703.125000	-107.076485
7718.750000	-109.549866
7734.375000	-111.948242
7750.000000	-114.670029
7765.625000	-117.812088
7781.250000	-121.408623
7796.875000	-125.352921
7812.500000	-129.333588
7828.125000	-133.735382
7843.750000	-138.525772
7859.375000	-144.068863
7875.000000	-149.952805
7890.625000	-156.444427
7906.250000	-163.351151
7921.875000	-170.551117
7937.500000	-175.641785
7953.125000	-177.421097
7968.750000	-178.117386
7984.375000	-178.313812
