Frequency (Hz)	Level (dB)
15.625000	-79.695595
31.250000	-76.678749
46.875000	-74.372314
62.500000	-72.529121
78.125000	-72.425941
93.750000	-73.663460
109.375000	-72.541786
125.000000	-72.280998
140.625000	-78.399544
156.250000	-78.367783
171.875000	-77.619179
187.500000	-77.357330
203.125000	-76.803154
218.750000	-76.404350
234.375000	-74.826118
250.000000	-74.263214
265.625000	-73.090515
281.250000	-70.775467
296.875000	-67.901169
312.500000	-64.168129
328.125000	-61.173382
343.750000	-61.052380
359.375000	-63.545399
375.000000	-66.667107
390.625000	-69.134651
406.250000	-70.888588
421.875000	-72.210762
437.500000	-73.153427
453.125000	-73.777809
468.750000	-74.158798
484.375000	-74.378677
500.000000	-74.274460
515.625000	-74.121956
531.250000	-73.847435
546.875000	-73.275169
562.500000	-72.724113
578.125000	-72.106461
593.750000	-71.306999
609.375000	-70.166405
625.000000	-68.628464
640.625000	-66.527100
656.250000	-63.779160
671.875000	-60.737209
687.500000	-59.134464
703.125000	-60.182884
718.750000	-62.850876
734.375000	-65.257393
750.000000	-66.848480
765.625000	-67.876541
781.250000	-68.699387
796.875000	-69.447075
812.500000	-70.093559
828.125000	-70.474518
843.750000	-70.680740
859.375000	-70.624565
875.000000	-70.328514
890.625000	-69.819847
906.250000	-69.075630
921.875000	-68.046371
937.500000	-66.705826
953.125000	-65.051819
968.750000	-63.282230
984.375000	-61.935856
1000.000000	-61.315662
1015.625000	-61.069309
1031.250000	-60.681278
1046.875000	-60.458523
1062.500000	-61.019203
1078.125000	-62.300491
1093.750000	-63.785599
1109.375000	-65.081337
1125.000000	-66.077744
1140.625000	-66.820610
1156.250000	-67.282509
1171.875000	-67.494392
1187.500000	-67.483421
1203.125000	-67.283333
1218.750000	-66.990456
1234.375000	-66.666908
1250.000000	-66.320671
1265.625000	-65.900032
1281.250000	-65.346153
1296.875000	-64.740425
1312.500000	-64.166267
1328.125000	-63.698769
1343.750000	-63.169167
1359.375000	-62.426132
1375.000000	-61.377026
1390.625000	-60.145203
1406.250000	-59.185345
1421.875000	-58.998714
1437.500000	-59.660427
1453.125000	-60.630093
1468.750000	-61.274223
1484.375000	-61.648499
1500.000000	-62.066784
1515.625000	-62.501682
1531.250000	-62.780087
1546.875000	-62.777508
1562.500000	-62.634365
1578.125000	-62.499813
1593.750000	-62.414707
1609.375000	-62.274342
1625.000000	-61.977020
1640.625000	-61.493893
1656.250000	-60.770756
1671.875000	-59.776199
1687.500000	-58.467648
1703.125000	-56.798904
1718.750000	-54.640934
1734.375000	-51.948635
1750.000000	-49.127510
1765.625000	-47.579899
1781.250000	-48.317265
1796.875000	-50.599789
1812.500000	-52.946529
1828.125000	-54.781143
1843.750000	-56.124203
1859.375000	-57.091629
1875.000000	-57.764019
1890.625000	-58.191456
1906.250000	-58.397491
1921.875000	-58.398792
1937.500000	-58.203197
1953.125000	-57.826130
1968.750000	-57.259029
1984.375000	-56.473129
2000.000000	-55.465836
2015.625000	-54.211727
2031.250000	-52.665813
2046.875000	-50.780922
2062.500000	-48.634834
2078.125000	-46.744766
2093.750000	-46.018360
2109.375000	-46.845200
2125.000000	-48.625160
2140.625000	-50.503311
2156.250000	-52.091148
2171.875000	-53.349380
2187.500000	-54.314873
2203.125000	-55.033386
2218.750000	-55.540146
2234.375000	-55.857777
2250.000000	-56.013550
2265.625000	-56.010914
2281.250000	-55.848709
2296.875000	-55.545895
2312.500000	-55.083401
2328.125000	-54.460861
2343.750000	-53.674671
2359.375000	-52.735161
2375.000000	-51.671085
2390.625000	-50.546803
2406.250000	-49.539818
2421.875000	-48.901001
2437.500000	-48.843418
2453.125000	-49.389725
2468.750000	-50.344139
2484.375000	-51.452209
2500.000000	-52.537575
2515.625000	-53.508190
2531.250000	-54.331856
2546.875000	-55.013992
2562.500000	-55.558254
2578.125000	-55.963043
2593.750000	-56.248142
2609.375000	-56.423939
2625.000000	-56.493423
2640.625000	-56.462494
2656.250000	-56.330070
2671.875000	-56.117767
2687.500000	-55.828941
2703.125000	-55.475410
2718.750000	-55.074257
2734.375000	-54.603683
2750.000000	-54.019318
2765.625000	-53.301590
2781.250000	-52.548542
2796.875000	-51.953545
2812.500000	-51.704258
2828.125000	-51.871357
2843.750000	-52.389484
2859.375000	-53.115475
2875.000000	-53.909874
2890.625000	-54.682098
2906.250000	-55.381233
2921.875000	-55.983448
2937.500000	-56.470394
2953.125000	-56.841633
2968.750000	-57.107418
2984.375000	-57.269306
3000.000000	-57.319172
3015.625000	-57.267437
3031.250000	-57.107143
3046.875000	-56.836880
3062.500000	-56.456623
3078.125000	-55.956284
3093.750000	-55.345486
3109.375000	-54.627216
3125.000000	-53.820793
3140.625000	-52.982166
3156.250000	-52.205124
3171.875000	-51.638336
3187.500000	-51.426731
3203.125000	-51.639729
3218.750000	-52.217106
3234.375000	-53.020039
3250.000000	-53.896702
3265.625000	-54.743332
3281.250000	-55.493122
3296.875000	-56.120625
3312.500000	-56.623283
3328.125000	-56.984913
3343.750000	-57.211910
3359.375000	-57.305313
3375.000000	-57.254395
3390.625000	-57.054737
3406.250000	-56.699539
3421.875000	-56.179409
3437.500000	-55.482594
3453.125000	-54.597549
3468.750000	-53.500431
3484.375000	-52.197739
3500.000000	-50.772686
3515.625000	-49.454456
3531.250000	-48.649548
3546.875000	-48.711246
3562.500000	-49.598812
3578.125000	-50.927734
3593.750000	-52.314281
3609.375000	-53.554630
3625.000000	-54.586540
3640.625000	-55.399971
3656.250000	-56.017559
3671.875000	-56.456753
3687.500000	-56.731895
3703.125000	-56.836788
3718.750000	-56.778194
3734.375000	-56.560646
3750.000000	-56.179901
3765.625000	-55.621017
3781.250000	-54.867680
3796.875000	-53.895859
3812.500000	-52.680252
3828.125000	-51.202614
3843.750000	-49.507286
3859.375000	-47.846966
3875.000000	-46.778408
3890.625000	-46.827778
3906.250000	-47.947048
3921.875000	-49.571354
3937.500000	-51.185879
3953.125000	-52.575817
3968.750000	-53.702778
3984.375000	-54.585278
4000.000000	-55.254547
4015.625000	-55.732903
4031.250000	-56.035019
4046.875000	-56.169266
4062.500000	-56.149429
4078.125000	-55.974773
4093.750000	-55.633305
4109.375000	-55.121277
4125.000000	-54.430294
4140.625000	-53.545322
4156.250000	-52.429546
4171.875000	-51.069405
4187.500000	-49.502300
4203.125000	-47.902489
4218.750000	-46.728855
4234.375000	-46.520489
4250.000000	-47.398232
4265.625000	-48.929161
4281.250000	-50.577538
4296.875000	-52.065125
4312.500000	-53.318874
4328.125000	-54.336555
4343.750000	-55.146378
4359.375000	-55.771889
4375.000000	-56.232475
4390.625000	-56.533649
4406.250000	-56.684612
4421.875000	-56.681751
4437.500000	-56.532139
4453.125000	-56.227631
4468.750000	-55.750717
4484.375000	-55.088257
4500.000000	-54.220718
4515.625000	-53.116615
4531.250000	-51.767246
4546.875000	-50.226688
4562.500000	-48.761318
4578.125000	-47.928802
4593.750000	-48.225071
4609.375000	-49.559925
4625.000000	-51.366478
4640.625000	-53.141724
4656.250000	-54.687454
4671.875000	-55.982353
4687.500000	-57.032516
4703.125000	-57.874832
4718.750000	-58.537037
4734.375000	-59.024300
4750.000000	-59.339054
4765.625000	-59.504459
4781.250000	-59.510872
4796.875000	-59.343521
4812.500000	-59.001411
4828.125000	-58.469154
4843.750000	-57.708725
4859.375000	-56.688271
4875.000000	-55.357101
4890.625000	-53.699108
4906.250000	-51.855408
4921.875000	-50.379494
4937.500000	-50.111069
4953.125000	-51.321823
4968.750000	-53.375111
4984.375000	-55.481770
5000.000000	-57.300018
5015.625000	-58.801029
5031.250000	-60.017590
5046.875000	-60.981541
5062.500000	-61.726624
5078.125000	-62.285992
5093.750000	-62.673386
5109.375000	-62.884480
5125.000000	-62.919060
5140.625000	-62.797565
5156.250000	-62.492718
5171.875000	-61.986069
5187.500000	-61.262962
5203.125000	-60.259254
5218.750000	-58.940998
5234.375000	-57.242180
5250.000000	-55.191010
5265.625000	-53.259438
5281.250000	-52.494438
5296.875000	-53.509571
5312.500000	-55.709652
5328.125000	-58.045086
5343.750000	-60.031780
5359.375000	-61.636242
5375.000000	-62.905773
5390.625000	-63.914478
5406.250000	-64.700577
5421.875000	-65.278343
5437.500000	-65.682571
5453.125000	-65.921242
5468.750000	-65.985085
5484.375000	-65.882027
5500.000000	-65.595657
5515.625000	-65.116936
5531.250000	-64.409798
5546.875000	-63.432201
5562.500000	-62.138321
5578.125000	-60.461514
5593.750000	-58.374924
5609.375000	-56.204109
5625.000000	-54.979481
5640.625000	-55.599712
5656.250000	-57.699894
5671.875000	-60.120487
5687.500000	-62.221291
5703.125000	-63.909840
5718.750000	-65.252945
5734.375000	-66.327545
5750.000000	-67.171982
5765.625000	-67.799179
5781.250000	-68.236191
5796.875000	-68.507202
5812.500000	-68.591187
5828.125000	-68.518738
5843.750000	-68.258224
5859.375000	-67.804825
5875.000000	-67.154930
5890.625000	-66.238571
5906.250000	-64.986122
5921.875000	-63.345020
5937.500000	-61.237698
5953.125000	-58.837090
5968.750000	-57.144382
5984.375000	-57.389889
6000.000000	-59.485447
6015.625000	-62.142944
6031.250000	-64.453751
6046.875000	-66.291054
6062.500000	-67.753777
6078.125000	-68.886307
6093.750000	-69.780251
6109.375000	-70.481186
6125.000000	-70.958000
6140.625000	-71.253975
6156.250000	-71.404915
6171.875000	-71.382790
6187.500000	-71.232712
6203.125000	-70.859787
6218.750000	-70.285065
6234.375000	-69.479332
6250.000000	-68.365822
6265.625000	-66.883095
6281.250000	-64.957489
6296.875000	-62.644138
6312.500000	-60.738400
6328.125000	-60.530247
6343.750000	-62.325169
6359.375000	-65.009117
6375.000000	-67.492203
6390.625000	-69.522537
6406.250000	-71.141769
6421.875000	-72.430962
6437.500000	-73.469543
6453.125000	-74.275101
6468.750000	-74.919113
6484.375000	-75.341194
6500.000000	-75.565109
6515.625000	-75.705162
6531.250000	-75.680939
6546.875000	-75.460838
6562.500000	-74.987518
6578.125000	-74.368958
6593.750000	-73.441185
6609.375000	-72.130226
6625.000000	-70.414375
6640.625000	-68.341248
6656.250000	-66.591415
6671.875000	-66.379189
6687.500000	-68.098366
6703.125000	-70.792412
6718.750000	-73.334900
6734.375000	-75.479805
6750.000000	-77.253960
6765.625000	-78.716942
6781.250000	-79.898750
6796.875000	-80.821327
6812.500000	-81.512741
6828.125000	-82.132561
6843.750000	-82.679329
6859.375000	-82.904289
6875.000000	-83.032387
6890.625000	-83.055931
6906.250000	-82.937813
6921.875000	-82.511459
6937.500000	-81.803246
6953.125000	-80.862701
6968.750000	-79.620003
6984.375000	-78.149658
7000.000000	-77.002945
7015.625000	-76.932190
7031.250000	-78.346840
7046.875000	-80.651749
7062.500000	-83.046524
7078.125000	-85.231285
7093.750000	-86.885986
7109.375000	-88.155991
7125.000000	-89.128029
7140.625000	-90.036026
7156.250000	-90.704353
7171.875000	-91.354027
7187.500000	-91.938934
7203.125000	-92.354553
7218.750000	-92.635704
7234.375000	-92.587639
7250.000000	-92.494362
7265.625000	-92.632164
7281.250000	-92.590828
7296.875000	-92.221428
7312.500000	-91.999405
7328.125000	-91.606346
7343.750000	-91.480896
7359.375000	-91.560783
7375.000000	-91.926819
7390.625000	-92.750542
7406.250000	-93.850639
7421.875000	-94.188164
7437.500000	-94.567108
7453.125000	-94.991814
7468.750000	-94.940460
7484.375000	-94.953354
7500.000000	-95.369682
7515.625000	-95.520866
7531.250000	-95.842751
7546.875000	-96.101517
7562.500000	-96.803444
7578.125000	-97.331604
7593.750000	-98.097458
7609.375000	-98.774704
7625.000000	-99.709572
7640.625000	-100.771835
7656.250000	-102.002930
7671.875000	-103.731499
7687.500000	-105.641808
7703.125000	-107.529396
7718.750000	-109.781837
7734.375000	-112.143814
7750.000000	-114.844315
7765.625000	-117.881271
7781.250000	-121.248207
7796.875000	-125.006493
7812.500000	-128.991486
7828.125000	-133.645798
7843.750000	-138.595261
7859.375000	-143.987518
7875.000000	-149.764648
7890.625000	-156.187607
7906.250000	-163.155792
7921.875000	-170.405838
7937.500000	-174.982605
7953.125000	-176.431992
7968.750000	-176.910858
7984.375000	-177.149033
