Frequency (Hz)	Level (dB)
15.625000	-76.347893
31.250000	-72.635872
46.875000	-70.450188
62.500000	-69.353340
78.125000	-68.355888
93.750000	-69.034378
109.375000	-67.258865
125.000000	-66.735130
140.625000	-73.776413
156.250000	-76.008865
171.875000	-76.076668
187.500000	-75.925423
203.125000	-75.295052
218.750000	-73.009239
234.375000	-69.491791
250.000000	-67.648407
265.625000	-65.035965
281.250000	-65.140038
296.875000	-68.628563
312.500000	-72.228073
328.125000	-75.011482
343.750000	-76.967262
359.375000	-78.101685
375.000000	-78.927322
390.625000	-79.902458
406.250000	-80.293304
421.875000	-80.455757
437.500000	-80.629501
453.125000	-80.269150
468.750000	-79.366104
484.375000	-78.841621
500.000000	-77.955811
515.625000	-76.740730
531.250000	-74.653015
546.875000	-72.172722
562.500000	-71.150627
578.125000	-72.670380
593.750000	-75.400841
609.375000	-77.783417
625.000000	-79.289215
640.625000	-80.217361
656.250000	-80.940414
671.875000	-81.438980
687.500000	-81.760780
703.125000	-81.665756
718.750000	-81.638397
734.375000	-81.441551
750.000000	-80.764099
765.625000	-79.560509
781.250000	-78.013390
796.875000	-75.933998
812.500000	-74.861023
828.125000	-74.907341
843.750000	-75.001251
859.375000	-75.396576
875.000000	-76.556267
890.625000	-78.141785
906.250000	-79.579681
921.875000	-80.701645
937.500000	-81.696617
953.125000	-82.043861
968.750000	-82.310783
984.375000	-82.218819
1000.000000	-81.882301
1015.625000	-81.731651
1031.250000	-81.419449
1046.875000	-80.919601
1062.500000	-80.312431
1078.125000	-79.851669
1093.750000	-79.384697
1109.375000	-79.205475
1125.000000	-79.248314
1140.625000	-79.022064
1156.250000	-79.122437
1171.875000	-79.355019
1187.500000	-79.749779
1203.125000	-80.076401
1218.750000	-80.659111
1234.375000	-80.962387
1250.000000	-81.220612
1265.625000	-81.283669
1281.250000	-81.425583
1296.875000	-81.413025
1312.500000	-81.121475
1328.125000	-80.920799
1343.750000	-80.552872
1359.375000	-79.785126
1375.000000	-78.679916
1390.625000	-76.831062
1406.250000	-74.519325
1421.875000	-71.701042
1437.500000	-69.502876
1453.125000	-69.796379
1468.750000	-71.785744
1484.375000	-74.294357
1500.000000	-76.421906
1515.625000	-77.833878
1531.250000	-78.465874
1546.875000	-79.029602
1562.500000	-79.616089
1578.125000	-79.636269
1593.750000	-79.540306
1609.375000	-78.808113
1625.000000	-77.521255
1640.625000	-76.283554
1656.250000	-74.696770
1671.875000	-72.824890
1687.500000	-70.482697
1703.125000	-68.881760
1718.750000	-69.468262
1734.375000	-71.257080
1750.000000	-73.593750
1765.625000	-75.302910
1781.250000	-76.712097
1796.875000	-77.667290
1812.500000	-78.423431
1828.125000	-78.488785
1843.750000	-78.509964
1859.375000	-78.706596
1875.000000	-78.317856
1890.625000	-77.643608
1906.250000	-76.794395
1921.875000	-75.583298
1937.500000	-74.576782
1953.125000	-73.493538
1968.750000	-72.312416
1984.375000	-71.797432
2000.000000	-72.419975
2015.625000	-73.654945
2031.250000	-74.700050
2046.875000	-75.905884
2062.500000	-76.865158
2078.125000	-77.754021
2093.750000	-78.343147
2109.375000	-78.766632
2125.000000	-78.878365
2140.625000	-78.700195
2156.250000	-78.621216
2171.875000	-78.623741
2187.500000	-78.318039
2203.125000	-77.803650
2218.750000	-77.127670
2234.375000	-76.735260
2250.000000	-76.229721
2265.625000	-75.437965
2281.250000	-74.980904
2296.875000	-74.630501
2312.500000	-74.794022
2328.125000	-75.557732
2343.750000	-76.662392
2359.375000	-77.279526
2375.000000	-78.154938
2390.625000	-78.713577
2406.250000	-79.089424
2421.875000	-79.625023
2437.500000	-79.695557
2453.125000	-79.692337
2468.750000	-79.506310
2484.375000	-79.301163
2500.000000	-78.928596
2515.625000	-78.515434
2531.250000	-77.699478
2546.875000	-76.728470
2562.500000	-75.789795
2578.125000	-75.183998
2593.750000	-74.596619
2609.375000	-74.742798
2625.000000	-75.769615
2640.625000	-76.584770
2656.250000	-77.517502
2671.875000	-78.497459
2687.500000	-79.195679
2703.125000	-79.763557
2718.750000	-80.267029
2734.375000	-80.501053
2750.000000	-80.602318
2765.625000	-80.380508
2781.250000	-79.847412
2796.875000	-79.295830
2812.500000	-78.496498
2828.125000	-77.334999
2843.750000	-75.711609
2859.375000	-74.312080
2875.000000	-73.413757
2890.625000	-73.491043
2906.250000	-74.201523
2921.875000	-75.838112
2937.500000	-77.255875
2953.125000	-78.455620
2968.750000	-79.550354
2984.375000	-80.454414
3000.000000	-80.954163
3015.625000	-81.522598
3031.250000	-81.485397
3046.875000	-81.238708
3062.500000	-80.866203
3078.125000	-79.753334
3093.750000	-78.594093
3109.375000	-77.392075
3125.000000	-75.609955
3140.625000	-73.600746
3156.250000	-72.119446
3171.875000	-72.125565
3187.500000	-73.413376
3203.125000	-75.436455
3218.750000	-77.330040
3234.375000	-79.034042
3250.000000	-80.137520
3265.625000	-80.617737
3281.250000	-81.075134
3296.875000	-81.433334
3312.500000	-81.190834
3328.125000	-81.269173
3343.750000	-81.025352
3359.375000	-80.088562
3375.000000	-79.028084
3390.625000	-77.609123
3406.250000	-75.740417
3421.875000	-73.118950
3437.500000	-71.188354
3453.125000	-71.387001
3468.750000	-72.742722
3484.375000	-74.951569
3500.000000	-77.004097
3515.625000	-78.646019
3531.250000	-79.755981
3546.875000	-80.650078
3562.500000	-81.180710
3578.125000	-81.191917
3593.750000	-81.211922
3609.375000	-81.034859
3625.000000	-80.583755
3640.625000	-79.982819
3656.250000	-78.901146
3671.875000	-77.333374
3687.500000	-75.619873
3703.125000	-73.225281
3718.750000	-71.255013
3734.375000	-70.942703
3750.000000	-72.174454
3765.625000	-74.451393
3781.250000	-76.586334
3796.875000	-78.065857
3812.500000	-79.132095
3828.125000	-80.116196
3843.750000	-80.832954
3859.375000	-80.966393
3875.000000	-81.263153
3890.625000	-81.116241
3906.250000	-80.864998
3921.875000	-80.430450
3937.500000	-79.384247
3953.125000	-78.424820
3968.750000	-76.748848
3984.375000	-74.587883
4000.000000	-72.857170
4015.625000	-72.287788
4031.250000	-73.020683
4046.875000	-75.051544
4062.500000	-77.214401
4078.125000	-78.892799
4093.750000	-80.128929
4109.375000	-81.097717
4125.000000	-81.917221
4140.625000	-82.395668
4156.250000	-82.594337
4171.875000	-82.576508
4187.500000	-82.582222
4203.125000	-82.438789
4218.750000	-81.763329
4234.375000	-80.617645
4250.000000	-79.451576
4265.625000	-77.860672
4281.250000	-75.868851
4296.875000	-74.456215
4312.500000	-74.724174
4328.125000	-76.454857
4343.750000	-78.561508
4359.375000	-80.785240
4375.000000	-82.463737
4390.625000	-83.861061
4406.250000	-84.448433
4421.875000	-84.956543
4437.500000	-85.543434
4453.125000	-85.754364
4468.750000	-85.595322
4484.375000	-85.311485
4500.000000	-84.900101
4515.625000	-84.045723
4531.250000	-82.967804
4546.875000	-81.296684
4562.500000	-79.214867
4578.125000	-77.654343
4593.750000	-77.562981
4609.375000	-78.940056
4625.000000	-81.180359
4640.625000	-83.456551
4656.250000	-85.128082
4671.875000	-86.221245
4687.500000	-87.038628
4703.125000	-87.672623
4718.750000	-87.873550
4734.375000	-88.093323
4750.000000	-88.317596
4765.625000	-88.339859
4781.250000	-87.846413
4796.875000	-87.022308
4812.500000	-86.085991
4828.125000	-84.606659
4843.750000	-82.442467
4859.375000	-80.242195
4875.000000	-79.590836
4890.625000	-81.001144
4906.250000	-83.292801
4921.875000	-85.697990
4937.500000	-87.324226
4953.125000	-88.234550
4968.750000	-89.338005
4984.375000	-89.977676
5000.000000	-90.032372
5015.625000	-90.396713
5031.250000	-90.569580
5046.875000	-90.275803
5062.500000	-90.061729
5078.125000	-89.409798
5093.750000	-88.482529
5109.375000	-87.113503
5125.000000	-85.002548
5140.625000	-82.873123
5156.250000	-81.985123
5171.875000	-83.033501
5187.500000	-85.262772
5203.125000	-87.625694
5218.750000	-89.359421
5234.375000	-90.404236
5250.000000	-91.107315
5265.625000	-91.234924
5281.250000	-91.415512
5296.875000	-91.656456
5312.500000	-91.490028
5328.125000	-91.603035
5343.750000	-91.666519
5359.375000	-91.333054
5375.000000	-90.301628
5390.625000	-89.291298
5406.250000	-87.725067
5421.875000	-85.624817
5437.500000	-84.731804
5453.125000	-85.663818
5468.750000	-87.433411
5484.375000	-89.338951
5500.000000	-90.728737
5515.625000	-91.667641
5531.250000	-92.314316
5546.875000	-92.464218
5562.500000	-92.457108
5578.125000	-92.730453
5593.750000	-92.863495
5609.375000	-92.792732
5625.000000	-92.585312
5640.625000	-92.285477
5656.250000	-91.714470
5671.875000	-90.885735
5687.500000	-89.547951
5703.125000	-88.088402
5718.750000	-86.959244
5734.375000	-87.375626
5750.000000	-89.092941
5765.625000	-91.024841
5781.250000	-92.108940
5796.875000	-92.680717
5812.500000	-93.029961
5828.125000	-93.298027
5843.750000	-93.318535
5859.375000	-93.484543
5875.000000	-93.462677
5890.625000	-93.295227
5906.250000	-93.094650
5921.875000	-93.050735
5937.500000	-92.920822
5953.125000	-92.217857
5968.750000	-91.211014
5984.375000	-90.146065
6000.000000	-89.592613
6015.625000	-90.251732
6031.250000	-91.016602
6046.875000	-91.702095
6062.500000	-92.490692
6078.125000	-93.104004
6093.750000	-93.395981
6109.375000	-93.658279
6125.000000	-93.931213
6140.625000	-94.277161
6156.250000	-94.086693
6171.875000	-94.151405
6187.500000	-94.017685
6203.125000	-93.714226
6218.750000	-93.586617
6234.375000	-93.253075
6250.000000	-92.930191
6265.625000	-92.541580
6281.250000	-92.071495
6296.875000	-91.960846
6312.500000	-92.376358
6328.125000	-93.172905
6343.750000	-93.660042
6359.375000	-93.630028
6375.000000	-94.068642
6390.625000	-94.044373
6406.250000	-94.076050
6421.875000	-94.417175
6437.500000	-94.570511
6453.125000	-94.326340
6468.750000	-94.313210
6484.375000	-94.299194
6500.000000	-94.265503
6515.625000	-94.405853
6531.250000	-94.268433
6546.875000	-93.963036
6562.500000	-93.519150
6578.125000	-93.367165
6593.750000	-93.463341
6609.375000	-93.678574
6625.000000	-94.105103
6640.625000	-94.354546
6656.250000	-94.491592
6671.875000	-94.519402
6687.500000	-94.668098
6703.125000	-95.096794
6718.750000	-95.089157
6734.375000	-94.697174
6750.000000	-94.701073
6765.625000	-94.808449
6781.250000	-94.620026
6796.875000	-94.855675
6812.500000	-94.758324
6828.125000	-94.626640
6843.750000	-94.443695
6859.375000	-94.535629
6875.000000	-94.451851
6890.625000	-94.693214
6906.250000	-94.619728
6921.875000	-94.678932
6937.500000	-94.971420
6953.125000	-94.981064
6968.750000	-95.108940
6984.375000	-95.094215
7000.000000	-94.918030
7015.625000	-94.769913
7031.250000	-94.742935
7046.875000	-94.725273
7062.500000	-94.882568
7078.125000	-94.967590
7093.750000	-95.093651
7109.375000	-95.228500
7125.000000	-95.142929
7140.625000	-94.910263
7156.250000	-94.868927
7171.875000	-94.821838
7187.500000	-94.903259
7203.125000	-95.415520
7218.750000	-95.321159
7234.375000	-95.327522
7250.000000	-95.155113
7265.625000	-94.807846
7281.250000	-95.172806
7296.875000	-95.277473
7312.500000	-95.027939
7328.125000	-95.255569
7343.750000	-95.113487
7359.375000	-95.200928
7375.000000	-95.152740
7390.625000	-95.052826
7406.250000	-94.985443
7421.875000	-94.960945
7437.500000	-95.044159
7453.125000	-95.195877
7468.750000	-95.418701
7484.375000	-95.305771
7500.000000	-95.413467
7515.625000	-95.819237
7531.250000	-96.002731
7546.875000	-96.302467
7562.500000	-96.738831
7578.125000	-97.288452
7593.750000	-98.176193
7609.375000	-99.100609
7625.000000	-99.724655
7640.625000	-100.710258
7656.250000	-102.003929
7671.875000	-103.542549
7687.500000	-105.407661
7703.125000	-107.486519
7718.750000	-109.663582
7734.375000	-111.922127
7750.000000	-114.566887
7765.625000	-118.116982
7781.250000	-121.625130
7796.875000	-125.150162
7812.500000	-129.153732
7828.125000	-133.561188
7843.750000	-138.598755
7859.375000	-144.113831
7875.000000	-149.940781
7890.625000	-156.353806
7906.250000	-163.484009
7921.875000	-170.751282
7937.500000	-177.155792
7953.125000	-180.174194
7968.750000	-181.376724
7984.375000	-181.901230
