Frequency (Hz)	Level (dB)
15.625000	-77.123062
31.250000	-74.139641
46.875000	-72.468430
62.500000	-70.749306
78.125000	-69.224770
93.750000	-69.414711
109.375000	-67.249329
125.000000	-66.599632
140.625000	-74.252495
156.250000	-77.132332
171.875000	-77.179771
187.500000	-76.589958
203.125000	-75.656624
218.750000	-73.158112
234.375000	-69.303871
250.000000	-67.612976
265.625000	-64.688446
281.250000	-64.391212
296.875000	-67.899841
312.500000	-71.810448
328.125000	-74.209938
343.750000	-75.834244
359.375000	-77.082573
375.000000	-77.935837
390.625000	-78.507439
406.250000	-78.892624
421.875000	-78.773415
437.500000	-78.530617
453.125000	-78.089493
468.750000	-77.602783
484.375000	-76.760902
500.000000	-75.554237
515.625000	-74.296463
531.250000	-71.816437
546.875000	-69.062775
562.500000	-68.101257
578.125000	-69.336937
593.750000	-71.929085
609.375000	-74.241600
625.000000	-75.867134
640.625000	-76.999756
656.250000	-77.410675
671.875000	-77.903702
687.500000	-78.253326
703.125000	-78.281517
718.750000	-78.038147
734.375000	-77.724327
750.000000	-76.781837
765.625000	-75.564720
781.250000	-73.714310
796.875000	-71.816887
812.500000	-70.493904
828.125000	-70.096764
843.750000	-70.458885
859.375000	-70.815437
875.000000	-71.706299
890.625000	-73.264709
906.250000	-74.577950
921.875000	-76.072853
937.500000	-76.943962
953.125000	-77.102928
968.750000	-77.241791
984.375000	-77.276451
1000.000000	-76.757317
1015.625000	-76.550430
1031.250000	-76.105301
1046.875000	-75.283272
1062.500000	-74.343399
1078.125000	-74.027000
1093.750000	-73.357071
1109.375000	-73.054993
1125.000000	-73.057037
1140.625000	-73.196434
1156.250000	-73.174988
1171.875000	-73.271828
1187.500000	-73.457184
1203.125000	-74.133949
1218.750000	-74.586418
1234.375000	-74.715614
1250.000000	-75.003517
1265.625000	-75.066467
1281.250000	-74.940689
1296.875000	-74.861420
1312.500000	-74.824768
1328.125000	-74.507881
1343.750000	-74.027222
1359.375000	-72.965118
1375.000000	-71.486687
1390.625000	-69.797348
1406.250000	-67.571274
1421.875000	-64.626915
1437.500000	-62.355141
1453.125000	-62.296223
1468.750000	-64.273010
1484.375000	-67.155815
1500.000000	-69.236450
1515.625000	-70.455650
1531.250000	-71.015945
1546.875000	-71.514732
1562.500000	-71.870796
1578.125000	-72.055298
1593.750000	-71.811241
1609.375000	-71.036491
1625.000000	-70.113319
1640.625000	-68.819595
1656.250000	-66.946396
1671.875000	-64.753029
1687.500000	-62.187786
1703.125000	-60.730515
1718.750000	-61.063511
1734.375000	-63.115685
1750.000000	-65.296349
1765.625000	-67.295052
1781.250000	-68.393974
1796.875000	-69.241478
1812.500000	-69.735992
1828.125000	-70.354073
1843.750000	-70.670746
1859.375000	-70.290848
1875.000000	-69.739815
1890.625000	-69.474083
1906.250000	-68.707756
1921.875000	-67.597717
1937.500000	-66.111687
1953.125000	-64.623322
1968.750000	-63.858864
1984.375000	-63.432522
2000.000000	-63.706066
2015.625000	-64.688332
2031.250000	-66.142197
2046.875000	-67.118553
2062.500000	-67.901009
2078.125000	-68.739105
2093.750000	-69.336311
2109.375000	-69.903381
2125.000000	-70.110229
2140.625000	-69.789116
2156.250000	-69.776978
2171.875000	-69.661942
2187.500000	-69.267929
2203.125000	-68.859619
2218.750000	-68.427399
2234.375000	-67.549019
2250.000000	-66.877151
2265.625000	-66.337357
2281.250000	-65.824471
2296.875000	-65.532822
2312.500000	-65.719215
2328.125000	-66.756470
2343.750000	-67.404602
2359.375000	-68.221298
2375.000000	-68.897316
2390.625000	-69.340408
2406.250000	-70.032715
2421.875000	-70.322479
2437.500000	-70.532799
2453.125000	-70.611343
2468.750000	-70.402733
2484.375000	-70.119812
2500.000000	-69.613350
2515.625000	-68.992676
2531.250000	-68.250557
2546.875000	-67.500076
2562.500000	-66.253143
2578.125000	-65.515923
2593.750000	-65.247505
2609.375000	-65.176392
2625.000000	-65.937660
2640.625000	-66.860435
2656.250000	-68.014000
2671.875000	-68.695312
2687.500000	-69.574013
2703.125000	-70.317223
2718.750000	-70.455673
2734.375000	-70.944855
2750.000000	-71.015434
2765.625000	-70.710938
2781.250000	-70.356522
2796.875000	-69.711945
2812.500000	-68.415443
2828.125000	-67.161545
2843.750000	-65.994873
2859.375000	-64.688194
2875.000000	-63.364471
2890.625000	-63.352081
2906.250000	-64.180138
2921.875000	-65.460495
2937.500000	-67.165092
2953.125000	-68.775131
2968.750000	-69.839584
2984.375000	-70.435562
3000.000000	-70.941444
3015.625000	-71.396629
3031.250000	-71.417671
3046.875000	-70.901665
3062.500000	-70.634460
3078.125000	-69.656616
3093.750000	-68.697243
3109.375000	-67.539452
3125.000000	-65.774506
3140.625000	-63.551563
3156.250000	-61.878506
3171.875000	-61.569942
3187.500000	-62.778023
3203.125000	-64.772232
3218.750000	-66.553253
3234.375000	-68.039497
3250.000000	-69.491371
3265.625000	-70.503418
3281.250000	-70.591316
3296.875000	-71.111679
3312.500000	-71.389412
3328.125000	-71.134956
3343.750000	-70.801414
3359.375000	-69.764488
3375.000000	-68.819023
3390.625000	-67.014801
3406.250000	-65.060585
3421.875000	-62.738163
3437.500000	-60.797932
3453.125000	-60.525539
3468.750000	-61.894321
3484.375000	-64.257698
3500.000000	-66.181175
3515.625000	-67.903015
3531.250000	-69.142334
3546.875000	-69.839371
3562.500000	-70.628052
3578.125000	-70.922340
3593.750000	-70.555870
3609.375000	-70.251823
3625.000000	-69.682083
3640.625000	-68.972343
3656.250000	-68.049179
3671.875000	-66.911530
3687.500000	-64.874054
3703.125000	-62.541290
3718.750000	-60.584476
3734.375000	-60.169472
3750.000000	-61.419586
3765.625000	-63.475266
3781.250000	-65.391953
3796.875000	-67.149696
3812.500000	-68.499840
3828.125000	-69.158394
3843.750000	-69.713089
3859.375000	-70.209450
3875.000000	-70.360909
3890.625000	-70.410103
3906.250000	-69.918015
3921.875000	-69.393433
3937.500000	-68.574059
3953.125000	-67.441811
3968.750000	-65.805298
3984.375000	-63.857849
4000.000000	-62.029915
4015.625000	-61.037201
4031.250000	-61.822681
4046.875000	-63.836472
4062.500000	-65.917770
4078.125000	-67.583054
4093.750000	-68.900459
4109.375000	-70.280182
4125.000000	-70.951019
4140.625000	-71.572853
4156.250000	-72.074959
4171.875000	-72.071411
4187.500000	-71.910461
4203.125000	-71.763184
4218.750000	-71.189835
4234.375000	-70.003891
4250.000000	-68.722672
4265.625000	-66.894165
4281.250000	-64.824471
4296.875000	-63.317589
4312.500000	-63.226143
4328.125000	-64.985306
4343.750000	-67.484215
4359.375000	-69.357025
4375.000000	-70.900238
4390.625000	-72.430191
4406.250000	-73.525887
4421.875000	-74.330345
4437.500000	-74.702805
4453.125000	-74.752571
4468.750000	-74.909370
4484.375000	-74.667557
4500.000000	-74.072922
4515.625000	-73.170410
4531.250000	-72.242210
4546.875000	-70.217529
4562.500000	-68.031120
4578.125000	-66.423729
4593.750000	-66.156303
4609.375000	-67.529160
4625.000000	-69.710823
4640.625000	-72.101028
4656.250000	-73.999969
4671.875000	-75.471367
4687.500000	-76.596161
4703.125000	-77.385483
4718.750000	-77.969460
4734.375000	-78.259537
4750.000000	-78.187294
4765.625000	-77.942375
4781.250000	-77.452171
4796.875000	-76.621086
4812.500000	-75.329834
4828.125000	-73.390610
4843.750000	-71.038467
4859.375000	-69.021164
4875.000000	-68.229935
4890.625000	-69.578125
4906.250000	-72.389160
4921.875000	-74.838097
4937.500000	-76.435143
4953.125000	-78.155113
4968.750000	-79.177963
4984.375000	-80.061600
5000.000000	-80.624634
5015.625000	-81.003510
5031.250000	-80.987144
5046.875000	-81.035461
5062.500000	-80.375793
5078.125000	-79.364616
5093.750000	-78.281860
5109.375000	-76.572334
5125.000000	-74.330170
5140.625000	-72.070236
5156.250000	-70.699959
5171.875000	-71.586037
5187.500000	-74.205719
5203.125000	-76.713921
5218.750000	-78.713707
5234.375000	-80.516411
5250.000000	-81.628349
5265.625000	-82.523727
5281.250000	-82.916100
5296.875000	-83.256279
5312.500000	-83.454704
5328.125000	-83.114502
5343.750000	-82.745445
5359.375000	-81.709145
5375.000000	-80.711960
5390.625000	-79.165009
5406.250000	-76.934120
5421.875000	-74.808403
5437.500000	-73.559784
5453.125000	-74.321716
5468.750000	-76.618797
5484.375000	-78.916389
5500.000000	-80.921005
5515.625000	-82.697411
5531.250000	-83.796936
5546.875000	-84.729591
5562.500000	-85.087875
5578.125000	-85.373337
5593.750000	-85.465233
5609.375000	-85.275833
5625.000000	-84.837944
5640.625000	-84.203751
5656.250000	-83.242989
5671.875000	-81.456223
5687.500000	-79.570847
5703.125000	-77.754051
5718.750000	-76.277130
5734.375000	-76.804001
5750.000000	-78.685440
5765.625000	-80.908394
5781.250000	-82.799103
5796.875000	-84.464958
5812.500000	-85.651474
5828.125000	-86.337791
5843.750000	-86.714226
5859.375000	-87.184395
5875.000000	-87.222382
5890.625000	-87.024765
5906.250000	-86.620796
5921.875000	-85.860771
5937.500000	-85.254753
5953.125000	-83.994408
5968.750000	-82.389641
5984.375000	-80.868996
6000.000000	-79.665665
6015.625000	-79.771507
6031.250000	-81.270805
6046.875000	-83.161125
6062.500000	-84.560547
6078.125000	-86.134483
6093.750000	-87.524590
6109.375000	-88.085342
6125.000000	-88.366592
6140.625000	-88.631897
6156.250000	-88.918243
6171.875000	-89.096436
6187.500000	-88.857773
6203.125000	-88.447830
6218.750000	-87.985542
6234.375000	-87.114227
6250.000000	-85.935776
6265.625000	-84.496742
6281.250000	-83.722038
6296.875000	-83.330185
6312.500000	-84.058556
6328.125000	-85.442741
6343.750000	-86.707115
6359.375000	-88.229996
6375.000000	-89.036201
6390.625000	-89.830925
6406.250000	-90.420891
6421.875000	-90.628197
6437.500000	-90.742157
6453.125000	-90.742889
6468.750000	-90.843727
6484.375000	-90.608421
6500.000000	-90.270561
6515.625000	-89.996765
6531.250000	-89.467186
6546.875000	-88.920334
6562.500000	-88.350410
6578.125000	-87.549362
6593.750000	-87.262672
6609.375000	-87.908226
6625.000000	-89.147766
6640.625000	-90.169037
6656.250000	-91.096931
6671.875000	-91.833656
6687.500000	-92.438141
6703.125000	-92.735931
6718.750000	-92.845352
6734.375000	-92.986214
6750.000000	-93.231880
6765.625000	-93.265656
6781.250000	-93.074837
6796.875000	-93.015228
6812.500000	-92.690529
6828.125000	-92.381073
6843.750000	-91.813461
6859.375000	-91.221489
6875.000000	-90.836327
6890.625000	-91.023788
6906.250000	-91.815887
6921.875000	-92.838455
6937.500000	-93.425041
6953.125000	-93.874886
6968.750000	-94.239708
6984.375000	-94.294281
7000.000000	-94.268349
7015.625000	-94.359863
7031.250000	-94.496910
7046.875000	-94.380302
7062.500000	-94.351318
7078.125000	-94.559677
7093.750000	-94.607712
7109.375000	-94.595032
7125.000000	-94.401299
7140.625000	-94.452919
7156.250000	-94.324600
7171.875000	-94.167442
7187.500000	-94.192261
7203.125000	-94.588470
7218.750000	-94.778694
7234.375000	-94.698410
7250.000000	-94.708687
7265.625000	-94.960281
7281.250000	-94.965706
7296.875000	-94.912407
7312.500000	-94.846542
7328.125000	-95.148033
7343.750000	-95.269646
7359.375000	-95.338600
7375.000000	-95.236031
7390.625000	-95.158943
7406.250000	-95.106430
7421.875000	-95.042900
7437.500000	-95.206039
7453.125000	-95.144623
7468.750000	-95.314911
7484.375000	-95.247749
7500.000000	-95.599785
7515.625000	-95.827019
7531.250000	-95.899925
7546.875000	-96.154846
7562.500000	-96.484558
7578.125000	-97.082466
7593.750000	-97.996452
7609.375000	-98.711983
7625.000000	-99.652138
7640.625000	-100.866608
7656.250000	-102.259064
7671.875000	-103.675209
7687.500000	-105.091827
7703.125000	-107.438622
7718.750000	-109.695686
7734.375000	-111.935387
7750.000000	-114.987915
7765.625000	-118.192902
7781.250000	-121.378891
7796.875000	-124.960297
7812.500000	-129.095108
7828.125000	-133.838211
7843.750000	-138.641724
7859.375000	-144.038925
7875.000000	-150.009857
7890.625000	-156.489944
7906.250000	-163.698364
7921.875000	-170.861618
7937.500000	-177.045532
7953.125000	-180.317719
7968.750000	-181.406372
7984.375000	-181.902863
